Wavelength (nm)	Intensity
377.35	810.67
377.48	584.00
377.62	602.00
377.75	606.33
377.88	808.00
378.02	793.33
378.15	793.33
378.28	778.67
378.41	832.67
378.55	801.67
378.68	798.00
378.81	771.00
378.95	796.67
379.08	783.00
379.21	761.00
379.35	820.33
379.48	816.00
379.61	861.67
379.74	795.33
379.88	779.00
380.01	847.33
380.14	904.00
380.28	839.00
380.41	764.00
380.54	813.33
380.68	827.00
380.81	739.33
380.94	830.00
381.07	866.67
381.21	866.33
381.34	792.67
381.47	737.33
381.61	925.00
381.74	803.67
381.87	762.67
382.00	824.00
382.14	882.33
382.27	839.67
382.40	774.33
382.54	859.33
382.67	862.00
382.80	765.00
382.93	775.33
383.07	811.67
383.20	792.67
383.33	831.00
383.47	780.33
383.60	760.00
383.73	936.00
383.86	822.33
384.00	797.00
384.13	792.33
384.26	836.67
384.40	841.33
384.53	792.00
384.66	845.33
384.79	820.00
384.93	785.00
385.06	788.67
385.19	820.67
385.33	912.67
385.46	819.67
385.59	779.00
385.72	809.33
385.86	750.67
385.99	785.33
386.12	794.67
386.25	769.00
386.39	839.00
386.52	851.67
386.65	802.00
386.79	789.33
386.92	786.00
387.05	871.00
387.18	756.67
387.32	772.67
387.45	830.67
387.58	818.00
387.71	792.33
387.85	789.00
387.98	815.00
388.11	832.00
388.25	814.67
388.38	796.67
388.51	828.67
388.64	830.00
388.78	774.67
388.91	758.33
389.04	803.67
389.17	902.00
389.31	809.33
389.44	840.67
389.57	850.33
389.70	823.67
389.84	784.33
389.97	778.00
390.10	780.67
390.24	820.67
390.37	797.67
390.50	775.67
390.63	865.33
390.77	798.00
390.90	811.33
391.03	812.00
391.16	756.33
391.30	782.67
391.43	790.00
391.56	787.67
391.69	775.67
391.83	849.00
391.96	804.00
392.09	786.33
392.22	884.00
392.36	821.00
392.49	777.00
392.62	799.00
392.75	816.00
392.89	849.67
393.02	770.33
393.15	770.33
393.28	754.67
393.42	883.67
393.55	760.33
393.68	778.67
393.81	726.67
393.95	779.00
394.08	772.67
394.21	778.67
394.34	843.33
394.48	833.00
394.61	839.33
394.74	821.00
394.87	843.33
395.01	819.00
395.14	828.67
395.27	781.00
395.40	887.67
395.54	891.33
395.67	805.67
395.80	793.67
395.93	825.00
396.07	785.00
396.20	784.33
396.33	735.33
396.46	776.33
396.59	799.67
396.73	797.67
396.86	778.67
396.99	852.33
397.12	816.33
397.26	802.00
397.39	801.33
397.52	1079.00
397.65	901.00
397.79	802.33
397.92	782.67
398.05	842.00
398.18	776.67
398.32	791.00
398.45	814.00
398.58	812.00
398.71	824.00
398.84	757.67
398.98	799.00
399.11	826.33
399.24	815.67
399.37	783.33
399.51	756.67
399.64	798.67
399.77	803.67
399.90	798.67
400.03	793.67
400.17	756.00
400.30	856.00
400.43	836.33
400.56	807.67
400.70	794.33
400.83	779.33
400.96	773.67
401.09	811.67
401.23	806.00
401.36	862.00
401.49	780.67
401.62	805.67
401.75	796.67
401.89	769.00
402.02	794.33
402.15	800.67
402.28	812.67
402.41	808.33
402.55	782.33
402.68	790.67
402.81	859.00
402.94	841.00
403.08	781.33
403.21	763.00
403.34	835.00
403.47	825.00
403.60	796.00
403.74	829.33
403.87	833.67
404.00	770.33
404.13	775.00
404.26	750.67
404.40	760.33
404.53	810.67
404.66	795.67
404.79	765.67
404.93	839.33
405.06	814.33
405.19	746.00
405.32	805.33
405.45	812.33
405.59	835.00
405.72	801.67
405.85	764.00
405.98	962.00
406.11	773.67
406.25	773.00
406.38	779.67
406.51	825.67
406.64	802.67
406.77	756.33
406.91	749.33
407.04	812.33
407.17	782.00
407.30	817.00
407.43	795.00
407.57	876.67
407.70	852.33
407.83	773.67
407.96	794.33
408.09	763.33
408.23	878.00
408.36	802.67
408.49	786.00
408.62	914.67
408.75	809.33
408.89	769.67
409.02	814.67
409.15	806.67
409.28	863.33
409.41	840.33
409.55	788.33
409.68	912.33
409.81	815.33
409.94	767.33
410.07	806.33
410.20	800.67
410.34	790.67
410.47	807.67
410.60	819.67
410.73	827.67
410.86	779.67
411.00	804.67
411.13	768.67
411.26	791.67
411.39	793.00
411.52	819.67
411.66	790.33
411.79	787.00
411.92	770.33
412.05	794.33
412.18	780.67
412.31	818.33
412.45	830.00
412.58	834.67
412.71	754.00
412.84	816.00
412.97	882.00
413.11	804.67
413.24	807.67
413.37	848.33
413.50	895.33
413.63	822.00
413.76	786.67
413.90	824.33
414.03	788.67
414.16	783.67
414.29	824.67
414.42	805.67
414.56	899.33
414.69	784.67
414.82	797.33
414.95	799.00
415.08	819.33
415.21	795.00
415.35	811.33
415.48	722.00
415.61	833.00
415.74	848.33
415.87	759.00
416.00	805.67
416.14	915.33
416.27	803.33
416.40	769.00
416.53	798.33
416.66	825.67
416.79	805.67
416.93	767.00
417.06	856.67
417.19	800.00
417.32	790.00
417.45	779.67
417.58	757.33
417.72	850.67
417.85	781.33
417.98	794.33
418.11	836.33
418.24	789.33
418.37	788.67
418.51	800.00
418.64	809.67
418.77	873.33
418.90	810.00
419.03	764.33
419.16	809.00
419.29	837.67
419.43	787.67
419.56	763.33
419.69	903.00
419.82	848.00
419.95	801.00
420.08	851.33
420.22	868.33
420.35	922.33
420.48	841.67
420.61	793.67
420.74	750.00
420.87	825.00
421.00	758.33
421.14	795.67
421.27	835.33
421.40	874.00
421.53	827.00
421.66	809.33
421.79	799.67
421.93	805.33
422.06	796.67
422.19	780.00
422.32	841.33
422.45	851.00
422.58	810.00
422.71	789.00
422.85	845.33
422.98	839.33
423.11	756.33
423.24	753.00
423.37	762.00
423.50	785.33
423.63	803.67
423.77	782.00
423.90	772.67
424.03	820.33
424.16	830.00
424.29	800.33
424.42	746.33
424.55	760.00
424.69	778.00
424.82	809.67
424.95	813.67
425.08	772.33
425.21	821.00
425.34	783.33
425.47	799.00
425.60	803.67
425.74	755.00
425.87	786.00
426.00	784.67
426.13	807.00
426.26	771.33
426.39	765.00
426.52	785.00
426.66	855.00
426.79	824.00
426.92	769.00
427.05	881.67
427.18	860.33
427.31	798.67
427.44	789.67
427.57	767.67
427.71	805.33
427.84	770.33
427.97	804.67
428.10	861.33
428.23	804.33
428.36	784.00
428.49	718.33
428.62	930.33
428.76	882.00
428.89	810.67
429.02	752.67
429.15	797.33
429.28	899.00
429.41	781.33
429.54	795.00
429.67	788.33
429.81	826.00
429.94	807.00
430.07	782.33
430.20	842.33
430.33	867.33
430.46	772.00
430.59	764.67
430.72	787.00
430.85	750.33
430.99	781.00
431.12	773.67
431.25	843.67
431.38	864.67
431.51	803.00
431.64	806.00
431.77	872.33
431.90	859.33
432.03	802.67
432.17	760.67
432.30	809.33
432.43	826.67
432.56	797.67
432.69	820.67
432.82	812.67
432.95	849.00
433.08	794.33
433.21	803.67
433.35	795.33
433.48	793.67
433.61	764.67
433.74	796.33
433.87	770.33
434.00	829.33
434.13	781.00
434.26	825.67
434.39	815.67
434.53	826.67
434.66	788.33
434.79	792.00
434.92	783.67
435.05	869.33
435.18	784.67
435.31	818.67
435.44	855.33
435.57	803.33
435.70	791.33
435.84	769.33
435.97	866.00
436.10	905.00
436.23	780.67
436.36	761.67
436.49	780.33
436.62	805.67
436.75	792.00
436.88	819.67
437.01	780.33
437.14	773.00
437.28	745.33
437.41	781.33
437.54	852.00
437.67	824.33
437.80	776.67
437.93	749.00
438.06	914.00
438.19	832.33
438.32	763.00
438.45	769.67
438.58	819.33
438.72	867.33
438.85	839.33
438.98	790.67
439.11	818.33
439.24	863.67
439.37	851.67
439.50	824.00
439.63	850.00
439.76	782.33
439.89	773.67
440.02	784.00
440.15	818.00
440.29	867.33
440.42	792.00
440.55	796.67
440.68	868.67
440.81	921.33
440.94	811.00
441.07	804.67
441.20	909.33
441.33	824.67
441.46	790.67
441.59	782.33
441.72	802.00
441.85	808.00
441.99	838.67
442.12	832.33
442.25	883.00
442.38	832.00
442.51	815.33
442.64	753.67
442.77	800.00
442.90	786.33
443.03	753.33
443.16	794.00
443.29	812.67
443.42	867.67
443.55	791.00
443.68	808.67
443.82	752.00
443.95	782.00
444.08	783.00
444.21	799.33
444.34	781.00
444.47	790.67
444.60	792.33
444.73	814.33
444.86	802.67
444.99	867.00
445.12	818.33
445.25	816.67
445.38	810.33
445.51	834.33
445.64	818.00
445.78	779.33
445.91	738.33
446.04	901.00
446.17	844.33
446.30	752.00
446.43	821.00
446.56	796.67
446.69	773.67
446.82	787.67
446.95	859.67
447.08	838.33
447.21	813.67
447.34	791.00
447.47	853.33
447.60	831.67
447.73	799.00
447.86	833.33
447.99	804.67
448.13	814.33
448.26	827.33
448.39	790.67
448.52	832.67
448.65	832.33
448.78	801.67
448.91	797.33
449.04	829.00
449.17	793.00
449.30	822.33
449.43	808.67
449.56	801.00
449.69	855.67
449.82	800.67
449.95	753.67
450.08	857.33
450.21	833.67
450.34	799.67
450.47	797.00
450.60	833.33
450.73	795.00
450.87	794.00
451.00	814.67
451.13	838.33
451.26	950.00
451.39	794.67
451.52	821.67
451.65	793.00
451.78	785.33
451.91	789.33
452.04	774.33
452.17	892.00
452.30	884.33
452.43	777.33
452.56	786.67
452.69	848.33
452.82	771.00
452.95	823.00
453.08	773.00
453.21	735.00
453.34	835.67
453.47	769.00
453.60	850.33
453.73	890.00
453.86	825.33
453.99	819.33
454.12	812.00
454.25	802.67
454.38	814.67
454.52	770.67
454.65	792.67
454.78	779.33
454.91	743.33
455.04	774.33
455.17	761.00
455.30	771.67
455.43	860.33
455.56	784.00
455.69	758.67
455.82	825.00
455.95	812.33
456.08	755.67
456.21	764.00
456.34	744.67
456.47	739.67
456.60	775.33
456.73	776.33
456.86	786.67
456.99	815.00
457.12	769.00
457.25	780.33
457.38	854.33
457.51	829.00
457.64	817.33
457.77	784.67
457.90	795.33
458.03	781.33
458.16	783.67
458.29	795.67
458.42	789.67
458.55	753.67
458.68	774.00
458.81	790.33
458.94	854.67
459.07	900.00
459.20	756.33
459.33	770.00
459.46	852.00
459.59	889.67
459.72	852.33
459.85	800.00
459.98	872.33
460.11	835.33
460.24	800.00
460.37	756.67
460.50	839.67
460.63	798.33
460.76	789.00
460.89	812.00
461.02	831.00
461.15	837.67
461.28	798.67
461.41	787.33
461.54	877.67
461.67	772.67
461.80	814.00
461.93	846.33
462.06	821.67
462.19	851.00
462.32	784.67
462.45	785.33
462.58	839.33
462.71	785.00
462.84	797.33
462.97	737.00
463.10	796.00
463.23	808.67
463.36	833.00
463.49	805.67
463.62	752.67
463.75	827.00
463.88	797.00
464.01	801.67
464.14	764.67
464.27	888.00
464.40	795.67
464.53	790.00
464.66	825.67
464.79	808.67
464.92	813.67
465.05	768.33
465.18	797.00
465.31	797.67
465.44	801.33
465.57	769.00
465.70	792.00
465.83	903.67
465.96	808.67
466.09	779.33
466.22	828.67
466.35	819.33
466.48	780.33
466.61	777.00
466.74	784.33
466.87	838.00
467.00	835.33
467.13	831.33
467.26	830.33
467.39	762.33
467.52	756.33
467.65	786.67
467.78	864.33
467.91	802.67
468.04	816.67
468.17	784.67
468.30	785.00
468.43	759.00
468.56	778.00
468.69	819.33
468.82	833.33
468.95	762.67
469.08	786.67
469.21	797.33
469.34	833.33
469.47	890.33
469.60	875.00
469.73	805.33
469.86	808.00
469.99	848.67
470.11	777.33
470.24	776.67
470.37	837.00
470.50	807.33
470.63	774.00
470.76	795.00
470.89	843.67
471.02	897.67
471.15	780.33
471.28	791.67
471.41	893.00
471.54	819.33
471.67	790.67
471.80	735.33
471.93	835.67
472.06	814.33
472.19	801.33
472.32	767.67
472.45	891.00
472.58	841.67
472.71	811.33
472.84	778.00
472.97	769.33
473.10	754.00
473.23	842.00
473.36	746.00
473.49	850.67
473.62	851.67
473.74	823.00
473.87	833.67
474.00	778.00
474.13	774.00
474.26	810.67
474.39	834.00
474.52	800.67
474.65	785.33
474.78	803.67
474.91	755.00
475.04	825.67
475.17	915.00
475.30	823.67
475.43	812.00
475.56	850.67
475.69	786.33
475.82	821.00
475.95	775.33
476.08	859.00
476.21	800.33
476.34	837.67
476.46	826.67
476.59	852.67
476.72	782.67
476.85	789.67
476.98	769.00
477.11	858.67
477.24	804.67
477.37	749.67
477.50	795.33
477.63	822.00
477.76	773.00
477.89	733.00
478.02	767.67
478.15	793.33
478.28	783.33
478.41	819.33
478.54	781.33
478.66	835.33
478.79	785.67
478.92	795.67
479.05	790.00
479.18	805.67
479.31	771.00
479.44	776.33
479.57	777.67
479.70	783.67
479.83	807.00
479.96	787.00
480.09	817.33
480.22	922.00
480.35	909.67
480.48	834.00
480.60	810.00
480.73	782.00
480.86	825.33
480.99	792.67
481.12	795.67
481.25	807.67
481.38	855.67
481.51	795.33
481.64	803.67
481.77	813.33
481.90	797.67
482.03	790.67
482.16	785.67
482.29	852.67
482.41	806.00
482.54	832.33
482.67	780.00
482.80	798.67
482.93	851.33
483.06	768.00
483.19	856.33
483.32	827.67
483.45	803.67
483.58	797.67
483.71	828.00
483.84	838.00
483.97	825.00
484.09	806.00
484.22	790.00
484.35	770.00
484.48	754.00
484.61	777.00
484.74	785.33
484.87	810.67
485.00	756.33
485.13	824.00
485.26	761.33
485.39	823.00
485.52	800.67
485.64	868.00
485.77	836.33
485.90	856.67
486.03	763.33
486.16	810.33
486.29	761.33
486.42	798.67
486.55	817.67
486.68	793.00
486.81	826.67
486.94	810.33
487.06	787.67
487.19	833.00
487.32	822.33
487.45	801.00
487.58	781.67
487.71	797.33
487.84	765.67
487.97	842.00
488.10	846.67
488.23	788.33
488.35	757.00
488.48	782.00
488.61	752.33
488.74	781.67
488.87	772.67
489.00	811.33
489.13	891.00
489.26	833.67
489.39	836.33
489.52	842.33
489.64	834.67
489.77	802.67
489.90	810.67
490.03	802.33
490.16	780.33
490.29	784.00
490.42	784.67
490.55	804.33
490.68	763.67
490.81	790.33
490.93	756.33
491.06	866.00
491.19	826.33
491.32	810.00
491.45	831.00
491.58	757.00
491.71	805.00
491.84	791.00
491.97	782.33
492.09	855.67
492.22	828.00
492.35	810.00
492.48	841.33
492.61	817.00
492.74	799.00
492.87	814.33
493.00	801.67
493.12	765.67
493.25	804.33
493.38	806.67
493.51	777.33
493.64	761.33
493.77	799.67
493.90	830.00
494.03	828.33
494.16	858.67
494.28	844.33
494.41	796.00
494.54	798.00
494.67	900.67
494.80	879.67
494.93	798.00
495.06	827.00
495.19	825.00
495.31	803.00
495.44	793.67
495.57	774.67
495.70	824.00
495.83	794.67
495.96	772.67
496.09	812.33
496.22	870.00
496.34	888.00
496.47	793.33
496.60	823.33
496.73	848.00
496.86	834.33
496.99	771.33
497.12	797.67
497.24	745.00
497.37	806.33
497.50	786.67
497.63	775.33
497.76	790.67
497.89	863.00
498.02	832.67
498.15	726.33
498.27	804.33
498.40	845.67
498.53	872.67
498.66	824.00
498.79	839.67
498.92	762.33
499.05	818.00
499.17	788.00
499.30	835.00
499.43	886.33
499.56	836.00
499.69	758.00
499.82	817.67
499.95	784.67
500.07	773.67
500.20	799.33
500.33	845.00
500.46	939.67
500.59	813.33
500.72	824.00
500.85	858.67
500.97	852.33
501.10	844.67
501.23	767.67
501.36	811.67
501.49	865.33
501.62	818.00
501.75	800.67
501.87	844.00
502.00	755.33
502.13	831.33
502.26	826.67
502.39	782.67
502.52	790.00
502.64	755.33
502.77	785.33
502.90	839.67
503.03	803.00
503.16	781.33
503.29	782.00
503.42	852.67
503.54	810.00
503.67	814.67
503.80	812.00
503.93	843.00
504.06	771.00
504.19	806.00
504.31	855.67
504.44	816.33
504.57	817.33
504.70	819.67
504.83	748.67
504.96	818.67
505.08	807.67
505.21	811.00
505.34	905.00
505.47	858.33
505.60	848.00
505.73	856.67
505.85	843.33
505.98	929.67
506.11	808.33
506.24	765.00
506.37	784.00
506.50	815.33
506.62	844.33
506.75	784.67
506.88	778.67
507.01	808.33
507.14	759.33
507.27	794.33
507.39	769.00
507.52	775.00
507.65	796.67
507.78	825.33
507.91	771.67
508.04	863.33
508.16	860.00
508.29	823.33
508.42	794.67
508.55	762.67
508.68	773.67
508.81	837.33
508.93	784.67
509.06	791.33
509.19	839.67
509.32	835.67
509.45	836.67
509.57	818.33
509.70	775.67
509.83	813.33
509.96	768.67
510.09	813.67
510.22	803.00
510.34	812.33
510.47	802.00
510.60	903.00
510.73	821.33
510.86	832.00
510.98	797.00
511.11	776.00
511.24	854.67
511.37	824.67
511.50	800.67
511.63	815.33
511.75	817.00
511.88	811.33
512.01	816.67
512.14	801.67
512.27	808.67
512.39	804.33
512.52	800.33
512.65	810.67
512.78	776.33
512.91	812.67
513.03	804.67
513.16	844.33
513.29	810.67
513.42	786.33
513.55	767.33
513.67	822.00
513.80	760.67
513.93	781.00
514.06	783.00
514.19	818.00
514.31	821.67
514.44	839.00
514.57	800.00
514.70	810.67
514.83	846.67
514.95	789.67
515.08	817.67
515.21	816.67
515.34	796.67
515.47	804.67
515.59	779.00
515.72	832.67
515.85	825.67
515.98	855.67
516.11	812.00
516.23	844.33
516.36	872.00
516.49	818.33
516.62	813.00
516.75	859.00
516.87	857.00
517.00	781.33
517.13	828.67
517.26	847.00
517.39	830.33
517.51	743.33
517.64	803.33
517.77	869.33
517.90	770.67
518.02	794.67
518.15	772.33
518.28	729.67
518.41	815.33
518.54	810.00
518.66	814.33
518.79	774.33
518.92	792.67
519.05	766.67
519.18	803.33
519.30	827.33
519.43	759.33
519.56	779.67
519.69	793.33
519.81	853.33
519.94	793.00
520.07	743.67
520.20	790.00
520.33	812.67
520.45	860.33
520.58	817.67
520.71	829.33
520.84	848.67
520.96	824.67
521.09	797.33
521.22	792.67
521.35	832.00
521.48	836.00
521.60	787.33
521.73	816.33
521.86	850.67
521.99	884.00
522.11	816.33
522.24	816.00
522.37	834.67
522.50	812.00
522.62	851.67
522.75	750.00
522.88	807.00
523.01	778.67
523.14	831.33
523.26	821.00
523.39	876.00
523.52	778.33
523.65	891.33
523.77	839.67
523.90	802.00
524.03	784.33
524.16	786.67
524.28	797.67
524.41	788.00
524.54	799.33
524.67	771.33
524.79	787.00
524.92	831.00
525.05	865.67
525.18	778.00
525.31	847.33
525.43	774.33
525.56	911.00
525.69	791.00
525.82	743.00
525.94	845.33
526.07	847.33
526.20	825.67
526.33	840.33
526.45	920.33
526.58	883.33
526.71	819.33
526.84	800.33
526.96	808.00
527.09	772.00
527.22	790.33
527.35	813.00
527.47	769.33
527.60	867.00
527.73	771.33
527.86	834.00
527.98	823.00
528.11	826.33
528.24	769.33
528.37	794.00
528.49	764.33
528.62	811.67
528.75	839.00
528.88	782.00
529.00	838.67
529.13	852.33
529.26	812.33
529.39	848.00
529.51	936.67
529.64	905.00
529.77	784.00
529.90	787.67
530.02	794.67
530.15	773.33
530.28	744.33
530.40	774.00
530.53	798.33
530.66	825.67
530.79	787.33
530.91	802.33
531.04	783.00
531.17	795.67
531.30	809.67
531.42	813.67
531.55	813.33
531.68	864.67
531.81	787.67
531.93	807.33
532.06	819.33
532.19	756.00
532.31	802.33
532.44	796.00
532.57	833.00
532.70	782.00
532.82	806.67
532.95	833.67
533.08	870.67
533.21	828.67
533.33	792.33
533.46	792.33
533.59	790.00
533.71	913.00
533.84	829.67
533.97	792.00
534.10	780.67
534.22	769.33
534.35	792.00
534.48	809.33
534.61	829.33
534.73	739.67
534.86	775.33
534.99	821.33
535.11	855.33
535.24	808.67
535.37	767.00
535.50	760.67
535.62	772.33
535.75	866.67
535.88	811.67
536.00	786.00
536.13	781.00
536.26	784.33
536.39	773.00
536.51	755.00
536.64	821.33
536.77	802.33
536.89	804.67
537.02	809.67
537.15	817.67
537.28	807.67
537.40	826.00
537.53	787.33
537.66	845.67
537.78	799.00
537.91	768.33
538.04	784.67
538.17	840.00
538.29	822.00
538.42	873.67
538.55	857.67
538.67	841.33
538.80	784.00
538.93	820.33
539.05	805.67
539.18	867.00
539.31	830.67
539.44	816.67
539.56	736.00
539.69	794.00
539.82	782.00
539.94	766.67
540.07	769.00
540.20	863.33
540.32	777.00
540.45	796.67
540.58	780.33
540.71	842.00
540.83	762.00
540.96	790.00
541.09	795.00
541.21	867.33
541.34	861.67
541.47	777.67
541.59	804.67
541.72	871.33
541.85	942.33
541.98	858.00
542.10	802.33
542.23	807.00
542.36	918.33
542.48	812.33
542.61	796.00
542.74	768.00
542.86	784.67
542.99	794.67
543.12	780.00
543.24	811.00
543.37	750.00
543.50	792.33
543.62	779.33
543.75	791.00
543.88	791.00
544.01	810.67
544.13	833.67
544.26	824.00
544.39	777.00
544.51	785.67
544.64	770.67
544.77	818.33
544.89	790.67
545.02	808.67
545.15	780.33
545.27	885.67
545.40	847.33
545.53	823.00
545.65	818.33
545.78	734.67
545.91	770.67
546.03	784.33
546.16	792.67
546.29	781.33
546.41	766.00
546.54	787.33
546.67	775.67
546.79	827.33
546.92	865.00
547.05	756.33
547.17	801.00
547.30	775.33
547.43	825.33
547.56	765.00
547.68	800.00
547.81	760.00
547.94	818.33
548.06	794.00
548.19	762.33
548.32	857.00
548.44	806.00
548.57	822.67
548.70	835.33
548.82	840.00
548.95	823.33
549.08	799.67
549.20	782.67
549.33	873.00
549.45	803.00
549.58	783.33
549.71	757.67
549.83	842.33
549.96	760.67
550.09	793.67
550.21	780.00
550.34	821.00
550.47	785.00
550.59	791.00
550.72	726.33
550.85	800.00
550.97	865.67
551.10	774.00
551.23	794.00
551.35	857.00
551.48	813.67
551.61	793.00
551.73	779.33
551.86	860.67
551.99	860.67
552.11	804.00
552.24	826.67
552.37	805.33
552.49	765.33
552.62	788.67
552.75	829.00
552.87	780.00
553.00	780.00
553.12	811.33
553.25	790.00
553.38	820.00
553.50	850.33
553.63	795.33
553.76	740.33
553.88	792.67
554.01	790.33
554.14	790.33
554.26	829.00
554.39	875.33
554.52	801.00
554.64	800.67
554.77	784.33
554.89	834.33
555.02	840.33
555.15	817.33
555.27	808.33
555.40	807.33
555.53	851.67
555.65	793.00
555.78	771.67
555.91	824.00
556.03	868.00
556.16	764.33
556.29	797.67
556.41	853.00
556.54	856.33
556.66	809.67
556.79	795.00
556.92	815.00
557.04	813.67
557.17	787.67
557.30	798.67
557.42	792.33
557.55	799.67
557.67	819.67
557.80	798.33
557.93	800.67
558.05	804.00
558.18	776.33
558.31	809.33
558.43	837.67
558.56	809.67
558.68	794.33
558.81	771.67
558.94	797.67
559.06	911.00
559.19	795.33
559.32	783.00
559.44	757.67
559.57	795.00
559.69	773.33
559.82	774.33
559.95	777.00
560.07	779.33
560.20	733.00
560.33	792.33
560.45	813.00
560.58	748.67
560.70	804.00
560.83	763.00
560.96	774.67
561.08	793.00
561.21	825.00
561.33	768.33
561.46	752.67
561.59	841.67
561.71	780.67
561.84	805.00
561.97	758.67
562.09	830.00
