Wavelength (nm)	Intensity
377.35	808.624
377.48	591.9739999999999
377.62	616.774
377.75	614.824
377.88	822.726
378.02	805.4
378.15	811.024
378.28	781.424
378.41	851.052
378.55	823.524
378.68	809.0
378.81	790.274
378.95	816.024
379.08	805.85
379.21	770.85
379.35	831.426
379.48	832.2760000000001
379.61	885.1
379.74	808.824
379.88	790.426
380.01	867.95
380.14	923.0260000000001
380.28	847.9739999999999
380.41	778.298
380.54	825.95
380.68	836.75
380.81	753.9
380.94	832.1
381.07	879.25
381.21	884.6
381.34	807.024
381.47	751.6479999999999
381.61	954.874
381.74	817.302
381.87	778.35
382.0	832.074
382.14	898.5
382.27	851.5
382.4	797.05
382.54	876.2760000000001
382.67	873.7760000000001
382.8	781.726
382.93	787.7479999999999
383.07	814.45
383.2	816.326
383.33	847.5
383.47	791.7
383.6	768.9739999999999
383.73	955.2760000000001
383.86	843.2239999999999
384.0	805.35
384.13	797.124
384.26	847.174
384.4	861.8
384.53	813.624
384.66	859.9739999999999
384.79	828.124
384.93	797.024
385.06	800.35
385.19	821.876
385.33	926.376
385.46	846.9
385.59	790.774
385.72	831.324
385.86	771.674
385.99	804.024
386.12	804.176
386.25	783.052
386.39	855.876
386.52	874.25
386.65	808.524
386.79	800.952
386.92	795.174
387.05	894.2239999999999
387.18	769.524
387.32	783.35
387.45	846.75
387.58	822.0260000000001
387.71	795.65
387.85	791.9
387.98	829.85
388.11	844.5
388.25	827.05
388.38	812.3
388.51	847.65
388.64	856.074
388.78	790.226
388.91	770.076
389.04	812.124
389.17	918.2520000000001
389.31	820.2239999999999
389.44	837.348
389.57	872.6479999999999
389.7	842.376
389.84	800.3979999999999
389.97	790.876
390.1	798.4739999999999
390.24	841.45
390.37	809.1479999999999
390.5	792.8520000000001
390.63	878.55
390.77	820.574
390.9	823.0260000000001
391.03	815.3
391.16	770.9739999999999
391.3	799.624
391.43	800.4
391.56	799.124
391.69	786.15
391.83	862.9
391.96	823.076
392.09	800.374
392.22	900.702
392.36	833.098
392.49	782.7239999999999
392.62	802.448
392.75	837.65
392.89	879.7760000000001
393.02	779.9
393.15	783.948
393.28	770.576
393.42	900.548
393.55	766.3
393.68	796.524
393.81	743.598
393.95	797.324
394.08	791.4739999999999
394.21	795.176
394.34	853.476
394.48	844.5
394.61	849.174
394.74	826.874
394.87	859.75
395.01	827.726
395.14	842.3
395.27	791.35
395.4	907.9
395.54	905.05
395.67	817.676
395.8	803.05
395.93	843.5
396.07	794.9
396.2	788.75
396.33	746.65
396.46	794.926
396.59	811.65
396.73	806.826
396.86	781.55
396.99	865.95
397.12	826.924
397.26	817.076
397.39	810.15
397.52	1097.05
397.65	920.2760000000001
397.79	813.85
397.92	802.826
398.05	861.4739999999999
398.18	795.626
398.32	803.626
398.45	833.65
398.58	836.7479999999999
398.71	841.024
398.84	773.326
398.98	807.702
399.11	842.7760000000001
399.24	832.826
399.37	799.25
399.51	777.048
399.64	814.174
399.77	816.85
399.9	811.1
400.03	809.798
400.17	770.952
400.3	875.924
400.43	844.374
400.56	815.874
400.7	817.55
400.83	791.826
400.96	783.774
401.09	819.124
401.23	821.374
401.36	880.7760000000001
401.49	798.374
401.62	815.976
401.75	807.35
401.89	785.574
402.02	794.626
402.15	815.226
402.28	832.676
402.41	825.624
402.55	795.876
402.68	805.5
402.81	883.698
402.94	856.3
403.08	791.376
403.21	774.124
403.34	853.5020000000001
403.47	850.226
403.6	805.326
403.74	835.05
403.87	853.4739999999999
404.0	790.0020000000001
404.13	789.074
404.26	766.4
404.4	781.0260000000001
404.53	830.926
404.66	805.124
404.79	777.476
404.93	850.774
405.06	825.774
405.19	766.25
405.32	820.65
405.45	836.274
405.59	852.326
405.72	814.65
405.85	789.976
405.98	984.7760000000001
406.11	786.324
406.25	781.298
406.38	798.0
406.51	841.0
406.64	811.924
406.77	768.75
406.91	770.626
407.04	836.552
407.17	803.626
407.3	824.226
407.43	805.476
407.57	884.948
407.7	869.374
407.83	784.926
407.96	812.1
408.09	775.7239999999999
408.23	898.476
408.36	810.574
408.49	798.074
408.62	926.826
408.75	825.676
408.89	788.1
409.02	831.726
409.15	820.0260000000001
409.28	898.524
409.41	844.7239999999999
409.55	789.25
409.68	929.548
409.81	831.374
409.94	788.476
410.07	821.876
410.2	821.65
410.34	803.15
410.47	810.576
410.6	820.976
410.73	847.626
410.86	787.874
411.0	813.676
411.13	782.226
411.26	824.75
411.39	819.552
411.52	833.124
411.66	801.5
411.79	798.45
411.92	787.826
412.05	805.574
412.18	796.95
412.31	833.7239999999999
412.45	862.076
412.58	849.0260000000001
412.71	775.424
412.84	833.2
412.97	894.0020000000001
413.11	817.598
413.24	832.576
413.37	855.524
413.5	917.4739999999999
413.63	830.774
413.76	800.374
413.9	845.9739999999999
414.03	800.5260000000001
414.16	796.176
414.29	828.624
414.42	814.7760000000001
414.56	917.674
414.69	795.2760000000001
414.82	808.9
414.95	814.1
415.08	835.3
415.21	810.65
415.35	829.6
415.48	741.726
415.61	863.424
415.74	865.976
415.87	772.2760000000001
416.0	826.4739999999999
416.14	928.402
416.27	821.126
416.4	782.8
416.53	809.802
416.66	839.924
416.79	817.976
416.93	783.326
417.06	835.1479999999999
417.19	816.926
417.32	803.55
417.45	792.75
417.58	769.874
417.72	855.726
417.85	795.45
417.98	810.0260000000001
418.11	848.4
418.24	790.976
418.37	796.55
418.51	815.0
418.64	822.376
418.77	892.152
418.9	826.15
419.03	773.426
419.16	828.2
419.29	859.174
419.43	795.7760000000001
419.56	779.5
419.69	924.9
419.82	867.1020000000001
419.95	811.1
420.08	854.6
420.22	881.25
420.35	937.85
420.48	855.1020000000001
420.61	803.6
420.74	759.6
420.87	849.65
421.0	777.326
421.14	803.126
421.27	854.924
421.4	889.7760000000001
421.53	833.9739999999999
421.66	812.1479999999999
421.79	812.2
421.93	816.7239999999999
422.06	815.3
422.19	792.25
422.32	858.298
422.45	861.976
422.58	827.1
422.71	798.45
422.85	860.598
422.98	860.376
423.11	770.176
423.24	756.0
423.37	782.05
423.5	788.8
423.63	814.598
423.77	784.6
423.9	787.726
424.03	834.674
424.16	839.35
424.29	810.024
424.42	761.524
424.55	786.6
424.69	781.1
424.82	815.626
424.95	824.4739999999999
425.08	789.024
425.21	832.576
425.34	797.874
425.47	813.048
425.6	828.25
425.74	766.574
425.87	798.876
426.0	811.85
426.13	825.076
426.26	784.374
426.39	788.8
426.52	802.576
426.66	879.1
426.79	839.65
426.92	784.2239999999999
427.05	912.7
427.18	872.8
427.31	804.174
427.44	803.126
427.57	787.024
427.71	816.126
427.84	776.076
427.97	812.9
428.1	871.826
428.23	820.85
428.36	795.0260000000001
428.49	726.774
428.62	941.05
428.76	912.348
428.89	825.8
429.02	766.55
429.15	807.7760000000001
429.28	914.05
429.41	795.05
429.54	803.976
429.67	797.85
429.81	845.876
429.94	812.05
430.07	792.45
430.2	859.05
430.33	877.6
430.46	778.8
430.59	779.8
430.72	815.176
430.85	763.55
430.99	803.85
431.12	782.124
431.25	869.0
431.38	883.452
431.51	811.7239999999999
431.64	814.876
431.77	896.95
431.9	887.35
432.03	812.624
432.17	786.626
432.3	823.55
432.43	841.8
432.56	815.926
432.69	831.7239999999999
432.82	829.7760000000001
432.95	870.774
433.08	816.4979999999999
433.21	815.6479999999999
433.35	803.0
433.48	813.126
433.61	774.85
433.74	803.976
433.87	790.75
434.0	845.476
434.13	786.924
434.26	838.152
434.39	834.6
434.53	845.524
434.66	806.6
434.79	803.4739999999999
434.92	795.9739999999999
435.05	878.6
435.18	793.35
435.31	832.25
435.44	874.1
435.57	821.0
435.7	811.7239999999999
435.84	783.824
435.97	883.074
436.1	930.376
436.23	800.826
436.36	782.426
436.49	796.5
436.62	831.376
436.75	806.55
436.88	833.674
437.01	794.174
437.14	778.95
437.28	757.302
437.41	793.2520000000001
437.54	877.35
437.67	850.424
437.8	787.15
437.93	768.924
438.06	934.774
438.19	862.476
438.32	769.624
438.45	779.674
438.58	840.6020000000001
438.72	891.2239999999999
438.85	854.9
438.98	802.95
439.11	832.326
439.24	886.524
439.37	869.348
439.5	840.4739999999999
439.63	870.524
439.76	799.626
439.89	788.176
440.02	796.9
440.15	841.024
440.29	881.4739999999999
440.42	813.448
440.55	806.25
440.68	888.874
440.81	940.0260000000001
440.94	823.548
441.07	812.45
441.2	905.45
441.33	832.274
441.46	805.3
441.59	794.4
441.72	811.674
441.85	822.85
441.99	849.35
442.12	849.5260000000001
442.25	903.0260000000001
442.38	841.75
442.51	835.126
442.64	770.426
442.77	816.674
442.9	803.976
443.03	772.9
443.16	795.65
443.29	825.05
443.42	887.874
443.55	800.2760000000001
443.68	819.05
443.82	767.674
443.95	799.376
444.08	796.65
444.21	810.024
444.34	786.7
444.47	809.824
444.6	809.674
444.73	824.076
444.86	819.2
444.99	882.2239999999999
445.12	832.85
445.25	822.924
445.38	828.55
445.51	853.826
445.64	822.8
445.78	796.55
445.91	760.5260000000001
446.04	930.924
446.17	861.85
446.3	762.5
446.43	834.426
446.56	820.05
446.69	783.55
446.82	790.25
446.95	862.426
447.08	864.0
447.21	820.7760000000001
447.34	796.65
447.47	861.052
447.6	852.676
447.73	813.476
447.86	845.15
447.99	822.4
448.13	836.75
448.26	851.35
448.39	807.874
448.52	852.65
448.65	857.9
448.78	816.048
448.91	807.2
449.04	845.976
449.17	802.176
449.3	836.374
449.43	826.45
449.56	819.7
449.69	880.926
449.82	816.176
449.95	767.75
450.08	871.1
450.21	846.076
450.34	812.624
450.47	806.45
450.6	856.3
450.73	822.0
450.87	804.25
451.0	826.126
451.13	854.55
451.26	970.55
451.39	801.6
451.52	834.0260000000001
451.65	809.674
451.78	801.9
451.91	797.0
452.04	790.626
452.17	899.8
452.3	896.4739999999999
452.43	800.8
452.56	797.624
452.69	864.05
452.82	782.426
452.95	845.0260000000001
453.08	786.624
453.21	745.5260000000001
453.34	861.452
453.47	790.926
453.6	859.476
453.73	910.15
453.86	847.326
453.99	831.874
454.12	829.674
454.25	808.7
454.38	831.824
454.52	778.924
454.65	796.174
454.78	790.85
454.91	765.874
455.04	792.552
455.17	776.826
455.3	782.2239999999999
455.43	874.926
455.56	801.7520000000001
455.69	768.626
455.82	842.476
455.95	832.25
456.08	771.524
456.21	771.8
456.34	762.976
456.47	751.426
456.6	795.226
456.73	782.8
456.86	805.2760000000001
456.99	837.2
457.12	783.452
457.25	794.15
457.38	872.024
457.51	849.35
457.64	824.8
457.77	798.2239999999999
457.9	810.5
458.03	799.75
458.16	800.126
458.29	804.9739999999999
458.42	806.374
458.55	760.25
458.68	782.85
458.81	801.2479999999999
458.94	877.926
459.07	918.4739999999999
459.2	773.7760000000001
459.33	785.174
459.46	874.826
459.59	910.926
459.72	873.0260000000001
459.85	808.826
459.98	889.0
460.11	846.924
460.24	814.5260000000001
460.37	770.402
460.5	854.2760000000001
460.63	831.626
460.76	801.9
460.89	814.35
461.02	839.3
461.15	850.15
461.28	807.624
461.41	799.376
461.54	888.652
461.67	783.5
461.8	818.65
461.93	855.924
462.06	838.926
462.19	863.874
462.32	797.1
462.45	789.576
462.58	845.024
462.71	799.024
462.84	805.7760000000001
462.97	754.826
463.1	809.55
463.23	825.476
463.36	844.426
463.49	816.85
463.62	765.3
463.75	837.824
463.88	800.5
464.01	805.576
464.14	776.676
464.27	909.152
464.4	805.4979999999999
464.53	807.0260000000001
464.66	843.8
464.79	835.7760000000001
464.92	821.824
465.05	782.024
465.18	809.9
465.31	814.574
465.44	805.624
465.57	789.75
465.7	801.4739999999999
465.83	922.798
465.96	821.75
466.09	792.0
466.22	856.926
466.35	836.774
466.48	790.076
466.61	790.8979999999999
466.74	806.5
466.87	858.85
467.0	843.676
467.13	837.202
467.26	853.15
467.39	767.55
467.52	765.324
467.65	803.6
467.78	881.426
467.91	819.824
468.04	816.626
468.17	789.274
468.3	801.7239999999999
468.43	773.7760000000001
468.56	787.426
468.69	826.85
468.82	840.774
468.95	777.274
469.08	798.574
469.21	807.874
469.34	846.4
469.47	920.95
469.6	887.8
469.73	821.4739999999999
469.86	836.124
469.99	863.25
470.11	785.374
470.24	794.75
470.37	850.35
470.5	823.626
470.63	791.824
470.76	809.85
470.89	851.9
471.02	924.75
471.15	798.6
471.28	803.25
471.41	912.1
471.54	842.576
471.67	800.076
471.8	746.952
471.93	858.152
472.06	834.876
472.19	802.35
472.32	781.0
472.45	918.55
472.58	866.95
472.71	821.15
472.84	794.7
472.97	790.4
473.1	775.15
473.23	848.576
473.36	763.9
473.49	875.05
473.62	856.076
473.74	833.4
473.87	853.05
474.0	790.3
474.13	787.0260000000001
474.26	823.024
474.39	836.374
474.52	814.2760000000001
474.65	799.424
474.78	810.452
474.91	765.848
475.04	837.9979999999999
475.17	935.7239999999999
475.3	840.7760000000001
475.43	827.552
475.56	871.7760000000001
475.69	814.7520000000001
475.82	840.6479999999999
475.95	785.476
476.08	883.4979999999999
476.21	824.7520000000001
476.34	855.374
476.46	848.35
476.59	883.576
476.72	802.2760000000001
476.85	800.676
476.98	778.5260000000001
477.11	864.576
477.24	816.45
477.37	755.302
477.5	797.426
477.63	823.774
477.76	782.0
477.89	749.7479999999999
478.02	773.674
478.15	811.098
478.28	801.85
478.41	832.7
478.54	796.2760000000001
478.66	854.9739999999999
478.79	807.0
478.92	805.426
479.05	807.5260000000001
479.18	821.1
479.31	785.876
479.44	791.098
479.57	785.7760000000001
479.7	805.15
479.83	827.2
479.96	797.95
480.09	829.574
480.22	949.176
480.35	929.65
480.48	859.0
480.6	823.424
480.73	795.674
480.86	840.4
480.99	799.874
481.12	801.05
481.25	817.976
481.38	879.3520000000001
481.51	802.45
481.64	815.876
481.77	838.726
481.9	807.9
482.03	813.85
482.16	798.7
482.29	876.126
482.41	820.1
482.54	839.1
482.67	791.574
482.8	817.6
482.93	864.2239999999999
483.06	779.3520000000001
483.19	871.902
483.32	847.098
483.45	816.424
483.58	822.376
483.71	842.7760000000001
483.84	851.7760000000001
483.97	836.074
484.09	815.9
484.22	797.376
484.35	788.674
484.48	763.2760000000001
484.61	793.2239999999999
484.74	797.976
484.87	832.15
485.0	774.774
485.13	832.2239999999999
485.26	778.75
485.39	840.774
485.52	814.0
485.64	881.324
485.77	845.024
485.9	859.674
486.03	775.052
486.16	828.75
486.29	779.452
486.42	810.55
486.55	827.302
486.68	801.8
486.81	838.424
486.94	828.85
487.06	803.774
487.19	846.9
487.32	838.95
487.45	822.5020000000001
487.58	796.1
487.71	813.5260000000001
487.84	773.874
487.97	847.576
488.1	861.75
488.23	799.076
488.35	763.326
488.48	806.126
488.61	772.7760000000001
488.74	796.952
488.87	793.1
489.0	818.574
489.13	908.476
489.26	844.674
489.39	846.45
489.52	852.124
489.64	846.576
489.77	823.45
489.9	820.176
490.03	807.698
490.16	796.174
490.29	795.3520000000001
490.42	792.348
490.55	823.35
490.68	785.524
490.81	796.726
490.93	762.7239999999999
491.06	876.85
491.19	840.5260000000001
491.32	829.324
491.45	841.65
491.58	772.2
491.71	813.226
491.84	796.45
491.97	798.926
492.09	878.324
492.22	841.7
492.35	821.376
492.48	851.0260000000001
492.61	825.75
492.74	815.226
492.87	830.374
493.0	817.7760000000001
493.12	793.376
493.25	818.274
493.38	807.074
493.51	782.626
493.64	774.676
493.77	811.774
493.9	836.6
494.03	838.874
494.16	875.6
494.28	881.95
494.41	811.874
494.54	813.524
494.67	931.0260000000001
494.8	890.424
494.93	815.424
495.06	834.476
495.19	846.4
495.31	822.174
495.44	803.876
495.57	787.55
495.7	838.2
495.83	811.2520000000001
495.96	781.6
496.09	822.874
496.22	885.25
496.34	909.2
496.47	809.198
496.6	835.5260000000001
496.73	863.5260000000001
496.86	857.45
496.99	787.2239999999999
497.12	817.05
497.24	761.6
497.37	827.876
497.5	805.85
497.63	790.95
497.76	817.074
497.89	879.2239999999999
498.02	844.126
498.15	740.176
498.27	817.876
498.4	865.9
498.53	882.676
498.66	833.55
498.79	865.876
498.92	782.076
499.05	830.324
499.17	817.65
499.3	855.4739999999999
499.43	901.7760000000001
499.56	840.524
499.69	766.2520000000001
499.82	833.35
499.95	799.7
500.07	791.874
500.2	819.324
500.33	858.476
500.46	957.25
500.59	823.7520000000001
500.72	829.0260000000001
500.85	872.698
500.97	871.574
501.1	867.0260000000001
501.23	784.3520000000001
501.36	831.126
501.49	889.424
501.62	841.726
501.75	824.326
501.87	870.874
502.0	769.7239999999999
502.13	833.15
502.26	831.0
502.39	800.95
502.52	806.5260000000001
502.64	769.4979999999999
502.77	792.5
502.9	848.726
503.03	820.226
503.16	793.7239999999999
503.29	791.65
503.42	866.9739999999999
503.54	824.476
503.67	822.0020000000001
503.8	825.848
503.93	864.574
504.06	784.15
504.19	813.576
504.31	869.326
504.44	834.6
504.57	840.426
504.7	831.552
504.83	775.1
504.96	838.0
505.08	820.25
505.21	824.55
505.34	917.876
505.47	876.05
505.6	857.6
505.73	870.626
505.85	861.7760000000001
505.98	949.35
506.11	821.824
506.24	788.9
506.37	789.824
506.5	827.25
506.62	861.8979999999999
506.75	803.4
506.88	787.3979999999999
507.01	836.0
507.14	772.6479999999999
507.27	813.576
507.39	788.05
507.52	795.7239999999999
507.65	802.452
507.78	840.15
507.91	789.2760000000001
508.04	877.726
508.16	872.226
508.29	834.198
508.42	805.2760000000001
508.55	789.4
508.68	793.0
508.81	860.9739999999999
508.93	796.376
509.06	802.85
509.19	855.65
509.32	845.05
509.45	828.95
509.57	839.774
509.7	789.2239999999999
509.83	818.4
509.96	779.2520000000001
510.09	818.7760000000001
510.22	815.75
510.34	816.798
510.47	812.174
510.6	919.524
510.73	834.074
510.86	839.2239999999999
510.98	808.25
511.11	804.674
511.24	866.726
511.37	847.876
511.5	808.152
511.63	831.4
511.75	827.674
511.88	816.774
512.01	839.8520000000001
512.14	827.1
512.27	837.024
512.39	815.024
512.52	807.7520000000001
512.65	830.95
512.78	791.85
512.91	819.45
513.03	823.176
513.16	859.802
513.29	826.4
513.42	805.2239999999999
513.55	783.924
513.67	841.374
513.8	771.0260000000001
513.93	796.676
514.06	797.774
514.19	836.2
514.31	836.926
514.44	856.5
514.57	810.7
514.7	829.3
514.83	872.4739999999999
514.95	800.1479999999999
515.08	828.274
515.21	848.798
515.34	831.1479999999999
515.47	821.2760000000001
515.59	792.824
515.72	842.024
515.85	845.5
515.98	873.55
516.11	832.0260000000001
516.23	852.926
516.36	885.8
516.49	842.1020000000001
516.62	825.95
516.75	878.924
516.87	878.7479999999999
517.0	797.4
517.13	847.5
517.26	874.326
517.39	844.124
517.51	760.174
517.64	820.7239999999999
517.77	894.5
517.9	791.7239999999999
518.02	818.674
518.15	788.5
518.28	745.126
518.41	818.0020000000001
518.54	823.452
518.66	825.65
518.79	784.0260000000001
518.92	801.324
519.05	791.35
519.18	813.9979999999999
519.3	847.35
519.43	773.274
519.56	791.25
519.69	799.3
519.81	865.0
519.94	804.676
520.07	751.95
520.2	799.65
520.33	829.6
520.45	877.7
520.58	832.902
520.71	840.826
520.84	866.7760000000001
520.96	839.4739999999999
521.09	819.848
521.22	798.5260000000001
521.35	855.0260000000001
521.48	849.226
521.6	798.376
521.73	822.55
521.86	876.65
521.99	899.75
522.11	831.676
522.24	816.926
522.37	846.774
522.5	832.374
522.62	873.524
522.75	763.7
522.88	831.0260000000001
523.01	799.05
523.14	843.226
523.26	831.65
523.39	881.426
523.52	801.374
523.65	906.826
523.77	850.726
523.9	823.25
524.03	811.174
524.16	809.274
524.28	805.476
524.41	808.1020000000001
524.54	817.2
524.67	778.376
524.79	804.376
524.92	842.924
525.05	892.5260000000001
525.18	785.25
525.31	855.75
525.43	782.952
525.56	930.95
525.69	800.948
525.82	755.1479999999999
525.94	856.826
526.07	862.95
526.2	843.1
526.33	857.924
526.45	940.476
526.58	913.826
526.71	837.802
526.84	818.324
526.96	828.6
527.09	791.85
527.22	807.2760000000001
527.35	808.726
527.47	776.2239999999999
527.6	890.4
527.73	787.198
527.86	851.976
527.98	841.326
528.11	848.048
528.24	793.674
528.37	812.85
528.49	780.176
528.62	821.0
528.75	851.3
528.88	795.702
529.0	849.402
529.13	870.876
529.26	825.376
529.39	850.802
529.51	951.152
529.64	921.35
529.77	795.226
529.9	808.85
530.02	809.676
530.15	793.0
530.28	753.7
530.4	788.826
530.53	815.326
530.66	833.2239999999999
530.79	801.424
530.91	817.476
531.04	800.302
531.17	816.274
531.3	815.202
531.42	816.698
531.55	829.3979999999999
531.68	885.076
531.81	795.6020000000001
531.93	818.098
532.06	827.95
532.19	783.626
532.31	813.626
532.44	807.7760000000001
532.57	843.924
532.7	795.824
532.82	826.0020000000001
532.95	849.8
533.08	883.926
533.21	851.424
533.33	790.9739999999999
533.46	796.326
533.59	806.676
533.71	928.326
533.84	833.524
533.97	802.726
534.1	801.2
534.22	783.95
534.35	815.476
534.48	822.726
534.61	844.024
534.73	755.35
534.86	785.976
534.99	831.2
535.11	874.374
535.24	833.574
535.37	793.2479999999999
535.5	780.1
535.62	785.4
535.75	875.948
535.88	825.376
536.0	793.1
536.13	798.3520000000001
536.26	804.3520000000001
536.39	794.726
536.51	771.798
536.64	836.576
536.77	814.3979999999999
536.89	813.452
537.02	822.774
537.15	840.374
537.28	820.45
537.4	832.4
537.53	799.926
537.66	867.1
537.78	827.174
537.91	787.374
538.04	795.726
538.17	853.524
538.29	836.126
538.42	892.1
538.55	873.1020000000001
538.67	845.4
538.8	794.2
538.93	833.75
539.05	821.05
