Wavelength (nm)	Intensity
377.35	838.00
377.48	601.00
377.62	598.00
377.75	607.00
377.88	822.00
378.02	823.00
378.15	824.00
378.28	784.00
378.41	865.00
378.55	823.00
378.68	797.00
378.81	791.00
378.95	829.00
379.08	811.00
379.21	775.00
379.35	841.00
379.48	842.00
379.61	907.00
379.74	838.00
379.88	826.00
380.01	900.00
380.14	958.00
380.28	875.00
380.41	804.00
380.54	855.00
380.68	880.00
380.81	793.00
380.94	882.00
381.07	906.00
381.21	932.00
381.34	845.00
381.47	772.00
381.61	998.00
381.74	849.00
381.87	818.00
382.00	885.00
382.14	953.00
382.27	894.00
382.40	846.00
382.54	928.00
382.67	920.00
382.80	811.00
382.93	828.00
383.07	854.00
383.20	870.00
383.33	892.00
383.47	855.00
383.60	815.00
383.73	1014.00
383.86	879.00
384.00	831.00
384.13	834.00
384.26	904.00
384.40	912.00
384.53	865.00
384.66	921.00
384.79	882.00
384.93	857.00
385.06	848.00
385.19	885.00
385.33	993.00
385.46	899.00
385.59	842.00
385.72	876.00
385.86	817.00
385.99	854.00
386.12	856.00
386.25	824.00
386.39	894.00
386.52	904.00
386.65	848.00
386.79	843.00
386.92	853.00
387.05	948.00
387.18	809.00
387.32	840.00
387.45	896.00
387.58	880.00
387.71	850.00
387.85	843.00
387.98	885.00
388.11	894.00
388.25	884.00
388.38	872.00
388.51	907.00
388.64	905.00
388.78	844.00
388.91	825.00
389.04	868.00
389.17	970.00
389.31	883.00
389.44	894.00
389.57	941.00
389.70	918.00
389.84	859.00
389.97	854.00
390.10	846.00
390.24	900.00
390.37	860.00
390.50	853.00
390.63	936.00
390.77	876.00
390.90	870.00
391.03	870.00
391.16	822.00
391.30	860.00
391.43	862.00
391.56	853.00
391.69	838.00
391.83	922.00
391.96	881.00
392.09	874.00
392.22	961.00
392.36	906.00
392.49	833.00
392.62	875.00
392.75	902.00
392.89	931.00
393.02	841.00
393.15	863.00
393.28	825.00
393.42	985.00
393.55	831.00
393.68	845.00
393.81	833.00
393.95	858.00
394.08	866.00
394.21	850.00
394.34	917.00
394.48	912.00
394.61	919.00
394.74	895.00
394.87	925.00
395.01	922.00
395.14	907.00
395.27	870.00
395.40	969.00
395.54	984.00
395.67	887.00
395.80	856.00
395.93	918.00
396.07	881.00
396.20	857.00
396.33	815.00
396.46	864.00
396.59	884.00
396.73	879.00
396.86	869.00
396.99	955.00
397.12	910.00
397.26	910.00
397.39	881.00
397.52	1207.00
397.65	1007.00
397.79	903.00
397.92	897.00
398.05	949.00
398.18	882.00
398.32	887.00
398.45	929.00
398.58	923.00
398.71	926.00
398.84	858.00
398.98	895.00
399.11	937.00
399.24	930.00
399.37	899.00
399.51	883.00
399.64	910.00
399.77	898.00
399.90	914.00
400.03	909.00
400.17	865.00
400.30	963.00
400.43	934.00
400.56	899.00
400.70	918.00
400.83	893.00
400.96	868.00
401.09	912.00
401.23	931.00
401.36	968.00
401.49	897.00
401.62	898.00
401.75	893.00
401.89	902.00
402.02	915.00
402.15	908.00
402.28	925.00
402.41	920.00
402.55	891.00
402.68	912.00
402.81	976.00
402.94	968.00
403.08	893.00
403.21	878.00
403.34	964.00
403.47	954.00
403.60	916.00
403.74	942.00
403.87	963.00
404.00	899.00
404.13	908.00
404.26	869.00
404.40	909.00
404.53	933.00
404.66	919.00
404.79	874.00
404.93	973.00
405.06	953.00
405.19	886.00
405.32	931.00
405.45	928.00
405.59	973.00
405.72	941.00
405.85	929.00
405.98	1109.00
406.11	905.00
406.25	910.00
406.38	911.00
406.51	978.00
406.64	938.00
406.77	878.00
406.91	898.00
407.04	970.00
407.17	952.00
407.30	971.00
407.43	944.00
407.57	1021.00
407.70	1010.00
407.83	925.00
407.96	955.00
408.09	922.00
408.23	1025.00
408.36	959.00
408.49	940.00
408.62	1089.00
408.75	965.00
408.89	929.00
409.02	977.00
409.15	977.00
409.28	1050.00
409.41	990.00
409.55	939.00
409.68	1090.00
409.81	973.00
409.94	941.00
410.07	955.00
410.20	967.00
410.34	958.00
410.47	956.00
410.60	975.00
410.73	1017.00
410.86	943.00
411.00	962.00
411.13	940.00
411.26	986.00
411.39	979.00
411.52	980.00
411.66	953.00
411.79	962.00
411.92	944.00
412.05	983.00
412.18	944.00
412.31	1005.00
412.45	1020.00
412.58	1026.00
412.71	935.00
412.84	1000.00
412.97	1052.00
413.11	995.00
413.24	1006.00
413.37	1031.00
413.50	1084.00
413.63	1002.00
413.76	967.00
413.90	1019.00
414.03	984.00
414.16	979.00
414.29	1006.00
414.42	988.00
414.56	1107.00
414.69	978.00
414.82	1024.00
414.95	1016.00
415.08	1021.00
415.21	983.00
415.35	1000.00
415.48	939.00
415.61	1062.00
415.74	1057.00
415.87	969.00
416.00	1038.00
416.14	1152.00
416.27	1028.00
416.40	988.00
416.53	1016.00
416.66	1032.00
416.79	1028.00
416.93	979.00
417.06	1035.00
417.19	1006.00
417.32	998.00
417.45	1016.00
417.58	993.00
417.72	1070.00
417.85	992.00
417.98	1016.00
418.11	1076.00
418.24	1008.00
418.37	1002.00
418.51	1020.00
418.64	1027.00
418.77	1117.00
418.90	1064.00
419.03	992.00
419.16	1041.00
419.29	1096.00
419.43	1029.00
419.56	1018.00
419.69	1150.00
419.82	1083.00
419.95	1049.00
420.08	1049.00
420.22	1102.00
420.35	1169.00
420.48	1095.00
420.61	1059.00
420.74	1009.00
420.87	1077.00
421.00	1010.00
421.14	1013.00
421.27	1109.00
421.40	1143.00
421.53	1079.00
421.66	1060.00
421.79	1058.00
421.93	1064.00
422.06	1064.00
422.19	1037.00
422.32	1133.00
422.45	1131.00
422.58	1072.00
422.71	1054.00
422.85	1136.00
422.98	1117.00
423.11	1020.00
423.24	1002.00
423.37	1050.00
423.50	1034.00
423.63	1070.00
423.77	1050.00
423.90	1068.00
424.03	1101.00
424.16	1109.00
424.29	1058.00
424.42	1042.00
424.55	1037.00
424.69	1032.00
424.82	1075.00
424.95	1111.00
425.08	1065.00
425.21	1111.00
425.34	1075.00
425.47	1088.00
425.60	1113.00
425.74	1042.00
425.87	1077.00
426.00	1088.00
426.13	1116.00
426.26	1070.00
426.39	1069.00
426.52	1093.00
426.66	1169.00
426.79	1101.00
426.92	1057.00
427.05	1187.00
427.18	1174.00
427.31	1088.00
427.44	1095.00
427.57	1062.00
427.71	1120.00
427.84	1061.00
427.97	1105.00
428.10	1161.00
428.23	1131.00
428.36	1095.00
428.49	1035.00
428.62	1266.00
428.76	1236.00
428.89	1137.00
429.02	1073.00
429.15	1128.00
429.28	1212.00
429.41	1109.00
429.54	1119.00
429.67	1103.00
429.81	1158.00
429.94	1134.00
430.07	1104.00
430.20	1179.00
430.33	1217.00
430.46	1110.00
430.59	1100.00
430.72	1126.00
430.85	1077.00
430.99	1126.00
431.12	1107.00
431.25	1216.00
431.38	1227.00
431.51	1129.00
431.64	1145.00
431.77	1213.00
431.90	1222.00
432.03	1152.00
432.17	1145.00
432.30	1160.00
432.43	1171.00
432.56	1161.00
432.69	1173.00
432.82	1178.00
432.95	1220.00
433.08	1160.00
433.21	1183.00
433.35	1144.00
433.48	1153.00
433.61	1126.00
433.74	1176.00
433.87	1137.00
434.00	1200.00
434.13	1153.00
434.26	1186.00
434.39	1186.00
434.53	1231.00
434.66	1163.00
434.79	1174.00
434.92	1160.00
435.05	1259.00
435.18	1172.00
435.31	1222.00
435.44	1270.00
435.57	1224.00
435.70	1172.00
435.84	1146.00
435.97	1268.00
436.10	1312.00
436.23	1173.00
436.36	1157.00
436.49	1178.00
436.62	1221.00
436.75	1188.00
436.88	1202.00
437.01	1189.00
437.14	1185.00
437.28	1146.00
437.41	1176.00
437.54	1254.00
437.67	1229.00
437.80	1177.00
437.93	1146.00
438.06	1323.00
438.19	1271.00
438.32	1162.00
438.45	1186.00
438.58	1251.00
438.72	1286.00
438.85	1259.00
438.98	1198.00
439.11	1258.00
439.24	1292.00
439.37	1266.00
439.50	1246.00
439.63	1320.00
439.76	1215.00
439.89	1202.00
440.02	1221.00
440.15	1262.00
440.29	1317.00
440.42	1229.00
440.55	1244.00
440.68	1323.00
440.81	1354.00
440.94	1249.00
441.07	1237.00
441.20	1362.00
441.33	1280.00
441.46	1212.00
441.59	1234.00
441.72	1245.00
441.85	1253.00
441.99	1286.00
442.12	1298.00
442.25	1369.00
442.38	1259.00
442.51	1279.00
442.64	1208.00
442.77	1285.00
442.90	1245.00
443.03	1207.00
443.16	1234.00
443.29	1275.00
443.42	1337.00
443.55	1271.00
443.68	1282.00
443.82	1243.00
443.95	1271.00
444.08	1283.00
444.21	1276.00
444.34	1306.00
444.47	1269.00
444.60	1296.00
444.73	1288.00
444.86	1306.00
444.99	1373.00
445.12	1328.00
445.25	1299.00
445.38	1316.00
445.51	1352.00
445.64	1325.00
445.78	1275.00
445.91	1257.00
446.04	1428.00
446.17	1357.00
446.30	1260.00
446.43	1342.00
446.56	1333.00
446.69	1271.00
446.82	1297.00
446.95	1390.00
447.08	1374.00
447.21	1322.00
447.34	1308.00
447.47	1395.00
447.60	1369.00
447.73	1323.00
447.86	1368.00
447.99	1343.00
448.13	1357.00
448.26	1397.00
448.39	1332.00
448.52	1371.00
448.65	1377.00
448.78	1334.00
448.91	1363.00
449.04	1366.00
449.17	1362.00
449.30	1378.00
449.43	1378.00
449.56	1374.00
449.69	1438.00
449.82	1371.00
449.95	1321.00
450.08	1442.00
450.21	1401.00
450.34	1369.00
450.47	1382.00
450.60	1405.00
450.73	1398.00
450.87	1356.00
451.00	1406.00
451.13	1462.00
451.26	1573.00
451.39	1346.00
451.52	1395.00
451.65	1380.00
451.78	1342.00
451.91	1391.00
452.04	1383.00
452.17	1507.00
452.30	1498.00
452.43	1394.00
452.56	1410.00
452.69	1475.00
452.82	1413.00
452.95	1467.00
453.08	1386.00
453.21	1343.00
453.34	1457.00
453.47	1404.00
453.60	1456.00
453.73	1538.00
453.86	1490.00
453.99	1453.00
454.12	1457.00
454.25	1448.00
454.38	1457.00
454.52	1403.00
454.65	1423.00
454.78	1416.00
454.91	1419.00
455.04	1433.00
455.17	1402.00
455.30	1441.00
455.43	1548.00
455.56	1451.00
455.69	1446.00
455.82	1491.00
455.95	1494.00
456.08	1465.00
456.21	1471.00
456.34	1443.00
456.47	1451.00
456.60	1463.00
456.73	1464.00
456.86	1496.00
456.99	1521.00
457.12	1461.00
457.25	1460.00
457.38	1566.00
457.51	1530.00
457.64	1531.00
457.77	1516.00
457.90	1510.00
458.03	1532.00
458.16	1538.00
458.29	1531.00
458.42	1519.00
458.55	1478.00
458.68	1510.00
458.81	1518.00
458.94	1620.00
459.07	1643.00
459.20	1488.00
459.33	1521.00
459.46	1593.00
459.59	1668.00
459.72	1623.00
459.85	1569.00
459.98	1654.00
460.11	1636.00
460.24	1598.00
460.37	1555.00
460.50	1663.00
460.63	1625.00
460.76	1574.00
460.89	1616.00
461.02	1656.00
461.15	1643.00
461.28	1613.00
461.41	1626.00
461.54	1677.00
461.67	1607.00
461.80	1650.00
461.93	1695.00
462.06	1699.00
462.19	1700.00
462.32	1617.00
462.45	1606.00
462.58	1718.00
462.71	1627.00
462.84	1644.00
462.97	1605.00
463.10	1658.00
463.23	1675.00
463.36	1699.00
463.49	1667.00
463.62	1621.00
463.75	1695.00
463.88	1669.00
464.01	1687.00
464.14	1643.00
464.27	1782.00
464.40	1656.00
464.53	1682.00
464.66	1761.00
464.79	1749.00
464.92	1730.00
465.05	1704.00
465.18	1716.00
465.31	1749.00
465.44	1735.00
465.57	1740.00
465.70	1736.00
465.83	1866.00
465.96	1765.00
466.09	1769.00
466.22	1842.00
466.35	1813.00
466.48	1763.00
466.61	1745.00
466.74	1784.00
466.87	1822.00
467.00	1848.00
467.13	1830.00
467.26	1857.00
467.39	1778.00
467.52	1798.00
467.65	1792.00
467.78	1904.00
467.91	1819.00
468.04	1866.00
468.17	1842.00
468.30	1875.00
468.43	1856.00
468.56	1857.00
468.69	1876.00
468.82	1916.00
468.95	1838.00
469.08	1873.00
469.21	1906.00
469.34	1943.00
469.47	2011.00
469.60	1994.00
469.73	1938.00
469.86	1986.00
469.99	2009.00
470.11	1906.00
470.24	1974.00
470.37	1981.00
470.50	1981.00
470.63	1982.00
470.76	1959.00
470.89	2012.00
471.02	2108.00
471.15	1989.00
471.28	2012.00
471.41	2096.00
471.54	2042.00
471.67	2010.00
471.80	1971.00
471.93	2116.00
472.06	2073.00
472.19	2043.00
472.32	2040.00
472.45	2189.00
472.58	2157.00
472.71	2106.00
472.84	2091.00
472.97	2087.00
473.10	2069.00
473.23	2169.00
473.36	2114.00
473.49	2213.00
473.62	2210.00
473.74	2196.00
473.87	2186.00
474.00	2142.00
474.13	2190.00
474.26	2219.00
474.39	2247.00
474.52	2251.00
474.65	2207.00
474.78	2251.00
474.91	2174.00
475.04	2273.00
475.17	2407.00
475.30	2290.00
475.43	2272.00
475.56	2350.00
475.69	2300.00
475.82	2347.00
475.95	2285.00
476.08	2436.00
476.21	2335.00
476.34	2380.00
476.46	2410.00
476.59	2445.00
476.72	2383.00
476.85	2360.00
476.98	2385.00
477.11	2460.00
477.24	2468.00
477.37	2387.00
477.50	2457.00
477.63	2468.00
477.76	2444.00
477.89	2394.00
478.02	2403.00
478.15	2499.00
478.28	2486.00
478.41	2538.00
478.54	2490.00
478.66	2585.00
478.79	2519.00
478.92	2555.00
479.05	2550.00
479.18	2543.00
479.31	2590.00
479.44	2578.00
479.57	2556.00
479.70	2582.00
479.83	2657.00
479.96	2660.00
480.09	2682.00
480.22	2777.00
480.35	2790.00
480.48	2675.00
480.60	2679.00
480.73	2660.00
480.86	2749.00
480.99	2706.00
481.12	2710.00
481.25	2770.00
481.38	2835.00
481.51	2729.00
481.64	2773.00
481.77	2818.00
481.90	2774.00
482.03	2827.00
482.16	2806.00
482.29	2916.00
482.41	2809.00
482.54	2851.00
482.67	2808.00
482.80	2858.00
482.93	2926.00
483.06	2829.00
483.19	2922.00
483.32	2912.00
483.45	2890.00
483.58	2924.00
483.71	2978.00
483.84	2983.00
483.97	3006.00
484.09	2949.00
484.22	2968.00
484.35	2957.00
484.48	2923.00
484.61	2938.00
484.74	2981.00
484.87	3047.00
485.00	2991.00
485.13	3063.00
485.26	3060.00
485.39	3105.00
485.52	3066.00
485.64	3158.00
485.77	3115.00
485.90	3152.00
486.03	3084.00
486.16	3154.00
486.29	3082.00
486.42	3152.00
486.55	3194.00
486.68	3144.00
486.81	3188.00
486.94	3226.00
487.06	3190.00
487.19	3261.00
487.32	3250.00
487.45	3231.00
487.58	3202.00
487.71	3246.00
487.84	3219.00
487.97	3269.00
488.10	3308.00
488.23	3255.00
488.35	3216.00
488.48	3306.00
488.61	3297.00
488.74	3311.00
488.87	3321.00
489.00	3341.00
489.13	3450.00
489.26	3377.00
489.39	3400.00
489.52	3444.00
489.64	3436.00
489.77	3376.00
489.90	3385.00
490.03	3409.00
490.16	3418.00
490.29	3438.00
490.42	3428.00
490.55	3506.00
490.68	3417.00
490.81	3486.00
490.93	3427.00
491.06	3531.00
491.19	3545.00
491.32	3513.00
491.45	3595.00
491.58	3513.00
491.71	3557.00
491.84	3524.00
491.97	3538.00
492.09	3611.00
492.22	3587.00
492.35	3605.00
492.48	3615.00
492.61	3637.00
492.74	3619.00
492.87	3625.00
493.00	3574.00
493.12	3598.00
493.25	3646.00
493.38	3645.00
493.51	3649.00
493.64	3642.00
493.77	3674.00
493.90	3739.00
494.03	3712.00
494.16	3778.00
494.28	3794.00
494.41	3742.00
494.54	3761.00
494.67	3850.00
494.80	3797.00
494.93	3764.00
495.06	3832.00
495.19	3792.00
495.31	3778.00
495.44	3808.00
495.57	3761.00
495.70	3823.00
495.83	3808.00
495.96	3814.00
496.09	3847.00
496.22	3911.00
496.34	3941.00
496.47	3847.00
496.60	3874.00
496.73	3939.00
496.86	3969.00
496.99	3873.00
497.12	3919.00
497.24	3877.00
497.37	3966.00
497.50	3910.00
497.63	3904.00
497.76	3937.00
497.89	4035.00
498.02	3933.00
498.15	3913.00
498.27	4014.00
498.40	4056.00
498.53	4047.00
498.66	4041.00
498.79	4065.00
498.92	4012.00
499.05	4026.00
499.17	4075.00
499.30	4118.00
499.43	4123.00
499.56	4079.00
499.69	4048.00
499.82	4157.00
499.95	4110.00
500.07	4103.00
500.20	4109.00
500.33	4117.00
500.46	4261.00
500.59	4182.00
500.72	4184.00
500.85	4244.00
500.97	4259.00
501.10	4191.00
501.23	4134.00
501.36	4180.00
501.49	4239.00
501.62	4264.00
501.75	4266.00
501.87	4322.00
502.00	4218.00
502.13	4284.00
502.26	4274.00
502.39	4206.00
502.52	4238.00
502.64	4242.00
502.77	4292.00
502.90	4312.00
503.03	4335.00
503.16	4269.00
503.29	4232.00
503.42	4427.00
503.54	4307.00
503.67	4341.00
503.80	4367.00
503.93	4408.00
504.06	4337.00
504.19	4367.00
504.31	4445.00
504.44	4434.00
504.57	4417.00
504.70	4399.00
504.83	4325.00
504.96	4425.00
505.08	4448.00
505.21	4507.00
505.34	4568.00
505.47	4543.00
505.60	4532.00
505.73	4576.00
505.85	4553.00
505.98	4684.00
506.11	4487.00
506.24	4526.00
506.37	4489.00
506.50	4565.00
506.62	4557.00
506.75	4533.00
506.88	4563.00
507.01	4578.00
507.14	4513.00
507.27	4556.00
507.39	4565.00
507.52	4596.00
507.65	4590.00
507.78	4653.00
507.91	4611.00
508.04	4697.00
508.16	4721.00
508.29	4643.00
508.42	4616.00
508.55	4622.00
508.68	4680.00
508.81	4724.00
508.93	4702.00
509.06	4738.00
509.19	4747.00
509.32	4710.00
509.45	4721.00
509.57	4752.00
509.70	4713.00
509.83	4728.00
509.96	4755.00
510.09	4804.00
510.22	4777.00
510.34	4839.00
510.47	4800.00
510.60	4890.00
510.73	4847.00
510.86	4858.00
510.98	4813.00
511.11	4830.00
511.24	4903.00
511.37	4885.00
511.50	4827.00
511.63	4852.00
511.75	4857.00
511.88	4858.00
512.01	4947.00
512.14	4873.00
512.27	4917.00
512.39	4843.00
512.52	4866.00
512.65	4949.00
512.78	4909.00
512.91	4835.00
513.03	4943.00
513.16	5033.00
513.29	4982.00
513.42	5015.00
513.55	4941.00
513.67	5024.00
513.80	4986.00
513.93	4993.00
514.06	5028.00
514.19	5036.00
514.31	5028.00
514.44	5035.00
514.57	5090.00
514.70	5123.00
514.83	5128.00
514.95	5040.00
515.08	5088.00
515.21	5104.00
515.34	5082.00
515.47	5090.00
515.59	5092.00
515.72	5118.00
515.85	5145.00
515.98	5232.00
516.11	5122.00
516.23	5225.00
516.36	5227.00
516.49	5247.00
516.62	5190.00
516.75	5294.00
516.87	5327.00
517.00	5152.00
517.13	5270.00
517.26	5257.00
517.39	5266.00
517.51	5149.00
517.64	5237.00
517.77	5298.00
517.90	5213.00
518.02	5233.00
518.15	5238.00
518.28	5186.00
518.41	5303.00
518.54	5293.00
518.66	5327.00
518.79	5275.00
518.92	5274.00
519.05	5328.00
519.18	5322.00
519.30	5375.00
519.43	5294.00
519.56	5347.00
519.69	5410.00
519.81	5371.00
519.94	5446.00
520.07	5337.00
520.20	5399.00
520.33	5423.00
520.45	5447.00
520.58	5443.00
520.71	5486.00
520.84	5454.00
520.96	5461.00
521.09	5519.00
521.22	5466.00
521.35	5492.00
521.48	5522.00
521.60	5494.00
521.73	5497.00
521.86	5520.00
521.99	5623.00
522.11	5500.00
522.24	5458.00
522.37	5546.00
522.50	5566.00
522.62	5577.00
522.75	5458.00
522.88	5508.00
523.01	5530.00
523.14	5577.00
523.26	5615.00
523.39	5683.00
523.52	5617.00
523.65	5714.00
523.77	5633.00
523.90	5640.00
524.03	5584.00
524.16	5619.00
524.28	5647.00
524.41	5627.00
524.54	5640.00
524.67	5573.00
524.79	5646.00
524.92	5667.00
525.05	5755.00
525.18	5655.00
525.31	5731.00
525.43	5662.00
525.56	5782.00
525.69	5701.00
525.82	5668.00
525.94	5803.00
526.07	5752.00
526.20	5770.00
526.33	5748.00
526.45	5900.00
526.58	5855.00
526.71	5777.00
526.84	5706.00
526.96	5829.00
527.09	5792.00
527.22	5807.00
527.35	5778.00
527.47	5709.00
527.60	5902.00
527.73	5766.00
527.86	5879.00
527.98	5864.00
528.11	5869.00
528.24	5901.00
528.37	5821.00
528.49	5841.00
528.62	5900.00
528.75	5936.00
528.88	5915.00
529.00	5881.00
529.13	5992.00
529.26	5878.00
529.39	5945.00
529.51	6142.00
529.64	6005.00
529.77	5967.00
529.90	5879.00
530.02	5926.00
530.15	5880.00
530.28	5879.00
530.40	5973.00
530.53	5966.00
530.66	6004.00
530.79	6008.00
530.91	6013.00
531.04	5970.00
531.17	6021.00
531.30	6017.00
531.42	6020.00
531.55	6112.00
531.68	6155.00
531.81	6029.00
531.93	6030.00
532.06	6096.00
532.19	6054.00
532.31	6065.00
532.44	6085.00
532.57	6132.00
532.70	6085.00
532.82	6147.00
532.95	6147.00
533.08	6179.00
533.21	6204.00
533.33	6115.00
533.46	6128.00
533.59	6194.00
533.71	6325.00
533.84	6181.00
533.97	6180.00
534.10	6170.00
534.22	6157.00
534.35	6227.00
534.48	6198.00
534.61	6267.00
534.73	6185.00
534.86	6221.00
534.99	6270.00
535.11	6278.00
535.24	6248.00
535.37	6259.00
535.50	6306.00
535.62	6254.00
535.75	6354.00
535.88	6289.00
536.00	6221.00
536.13	6284.00
536.26	6349.00
536.39	6337.00
536.51	6328.00
536.64	6374.00
536.77	6268.00
536.89	6378.00
537.02	6361.00
537.15	6373.00
537.28	6357.00
537.40	6407.00
537.53	6361.00
537.66	6444.00
537.78	6376.00
537.91	6373.00
538.04	6363.00
538.17	6476.00
538.29	6478.00
538.42	6573.00
538.55	6512.00
538.67	6495.00
538.80	6404.00
538.93	6489.00
539.05	6522.00
539.18	6634.00
539.31	6585.00
539.44	6554.00
539.56	6504.00
539.69	6507.00
539.82	6545.00
539.94	6486.00
540.07	6548.00
540.20	6632.00
540.32	6518.00
540.45	6574.00
540.58	6583.00
540.71	6633.00
540.83	6497.00
540.96	6595.00
541.09	6610.00
541.21	6713.00
541.34	6704.00
541.47	6602.00
541.59	6633.00
541.72	6743.00
541.85	6739.00
541.98	6704.00
542.10	6610.00
542.23	6740.00
542.36	6768.00
542.48	6715.00
542.61	6763.00
542.74	6679.00
542.86	6668.00
542.99	6705.00
543.12	6652.00
543.24	6759.00
543.37	6684.00
543.50	6698.00
543.62	6742.00
543.75	6765.00
543.88	6843.00
544.01	6775.00
544.13	6801.00
544.26	6866.00
544.39	6742.00
544.51	6794.00
544.64	6816.00
544.77	6795.00
544.89	6764.00
545.02	6834.00
545.15	6840.00
545.27	6926.00
545.40	6912.00
545.53	6861.00
545.65	6882.00
545.78	6788.00
545.91	6887.00
546.03	6830.00
546.16	6941.00
546.29	6885.00
546.41	6893.00
546.54	6921.00
546.67	6876.00
546.79	6931.00
546.92	6998.00
547.05	6927.00
547.17	6962.00
547.30	6929.00
547.43	7031.00
547.56	6961.00
547.68	6936.00
547.81	6968.00
547.94	6977.00
548.06	6999.00
548.19	7009.00
548.32	7121.00
548.44	6999.00
548.57	7081.00
548.70	7073.00
548.82	7019.00
548.95	7027.00
549.08	7118.00
549.20	7002.00
549.33	7194.00
549.45	7097.00
549.58	7108.00
549.71	7061.00
549.83	7058.00
549.96	7019.00
550.09	7082.00
550.21	7075.00
550.34	7178.00
550.47	7112.00
550.59	7130.00
550.72	7131.00
550.85	7130.00
550.97	7225.00
551.10	7155.00
551.23	7227.00
551.35	7303.00
551.48	7222.00
551.61	7192.00
551.73	7236.00
551.86	7324.00
551.99	7338.00
552.11	7255.00
552.24	7294.00
552.37	7294.00
