Wavelength (nm)	Intensity
377.35	801.14
377.48	599.14
377.62	621.00
377.75	613.14
377.88	810.14
378.02	796.71
378.15	806.43
378.28	774.71
378.41	836.71
378.55	815.71
378.68	804.00
378.81	780.29
378.95	805.86
379.08	786.71
379.21	762.29
379.35	824.43
379.48	822.00
379.61	877.29
379.74	804.57
379.88	785.00
380.01	856.14
380.14	907.14
380.28	844.43
380.41	774.86
380.54	815.29
380.68	824.57
380.81	743.86
380.94	833.71
381.07	864.43
381.21	874.71
381.34	801.57
381.47	743.71
381.61	930.29
381.74	804.14
381.87	765.14
382.00	819.86
382.14	889.29
382.27	830.57
382.40	772.14
382.54	866.14
382.67	857.86
382.80	773.43
382.93	777.00
383.07	801.43
383.20	800.86
383.33	831.57
383.47	789.86
383.60	764.00
383.73	944.43
383.86	830.29
384.00	792.00
384.13	796.14
384.26	830.86
384.40	854.00
384.53	810.00
384.66	841.71
384.79	814.86
384.93	793.43
385.06	793.71
385.19	820.71
385.33	918.43
385.46	831.71
385.59	786.86
385.72	832.43
385.86	769.86
385.99	792.86
386.12	794.86
386.25	776.14
386.39	839.57
386.52	862.71
386.65	807.86
386.79	800.00
386.92	791.14
387.05	885.29
387.18	765.43
387.32	771.86
387.45	834.86
387.58	813.43
387.71	794.14
387.85	782.00
387.98	813.43
388.11	832.43
388.25	817.86
388.38	812.86
388.51	846.29
388.64	843.71
388.78	790.00
388.91	767.14
389.04	802.57
389.17	908.00
389.31	818.57
389.44	832.00
389.57	870.57
389.70	833.71
389.84	791.43
389.97	786.29
390.10	788.86
390.24	828.43
390.37	799.00
390.50	789.43
390.63	872.57
390.77	811.29
390.90	812.71
391.03	808.43
391.16	759.71
391.30	790.29
391.43	791.29
391.56	790.71
391.69	777.29
391.83	849.71
391.96	809.43
392.09	795.71
392.22	890.71
392.36	823.14
392.49	776.86
392.62	796.43
392.75	833.71
392.89	860.86
393.02	769.29
393.15	771.86
393.28	765.86
393.42	883.71
393.55	762.14
393.68	787.00
393.81	742.57
393.95	791.14
394.08	784.43
394.21	785.86
394.34	836.71
394.48	826.29
394.61	838.86
394.74	818.43
394.87	847.43
395.01	825.43
395.14	831.29
395.27	781.14
395.40	895.00
395.54	893.86
395.67	805.14
395.80	796.43
395.93	835.00
396.07	781.43
396.20	781.00
396.33	738.29
396.46	788.29
396.59	800.86
396.73	800.29
396.86	773.86
396.99	853.00
397.12	817.29
397.26	811.57
397.39	802.00
397.52	1082.86
397.65	901.57
397.79	803.86
397.92	792.43
398.05	851.86
398.18	788.86
398.32	793.86
398.45	825.57
398.58	825.14
398.71	828.43
398.84	766.29
398.98	799.14
399.11	829.29
399.24	830.43
399.37	789.57
399.51	777.57
399.64	798.00
399.77	807.43
399.90	807.14
400.03	807.86
400.17	765.71
400.30	866.29
400.43	835.00
400.56	808.29
400.70	808.14
400.83	782.71
400.96	778.14
401.09	814.71
401.23	814.43
401.36	867.14
401.49	791.71
401.62	810.29
401.75	795.71
401.89	777.00
402.02	791.57
402.15	807.86
402.28	822.43
402.41	818.00
402.55	783.71
402.68	802.29
402.81	877.57
402.94	842.71
403.08	787.57
403.21	766.43
403.34	841.71
403.47	840.14
403.60	795.57
403.74	824.29
403.87	838.57
404.00	776.29
404.13	783.00
404.26	756.71
404.40	768.14
404.53	812.43
404.66	798.86
404.79	771.71
404.93	836.71
405.06	789.86
405.19	749.00
405.32	813.57
405.45	825.29
405.59	841.00
405.72	809.43
405.85	773.86
405.98	963.43
406.11	775.71
406.25	776.43
406.38	796.71
406.51	830.00
406.64	804.86
406.77	767.86
406.91	758.14
407.04	821.00
407.17	790.14
407.30	821.86
407.43	802.57
407.57	876.71
407.70	856.57
407.83	772.14
407.96	806.14
408.09	770.29
408.23	888.14
408.36	801.43
408.49	797.00
408.62	919.86
408.75	812.43
408.89	774.57
409.02	819.86
409.15	807.86
409.28	880.57
409.41	832.00
409.55	792.71
409.68	913.29
409.81	820.29
409.94	778.86
410.07	811.14
410.20	806.00
410.34	797.71
410.47	802.71
410.60	817.00
410.73	834.00
410.86	777.43
411.00	806.71
411.13	779.29
411.26	810.43
411.39	805.57
411.52	822.57
411.66	795.43
411.79	785.43
411.92	777.71
412.05	801.29
412.18	792.86
412.31	821.43
412.45	836.86
412.58	838.00
412.71	765.71
412.84	819.29
412.97	884.14
413.11	813.57
413.24	812.43
413.37	847.71
413.50	905.29
413.63	823.57
413.76	791.71
413.90	834.86
414.03	788.57
414.16	791.86
414.29	828.29
414.42	808.29
414.56	909.00
414.69	791.00
414.82	800.14
414.95	804.57
415.08	830.00
415.21	803.86
415.35	825.14
415.48	734.14
415.61	848.71
415.74	853.29
415.87	765.00
416.00	819.29
416.14	919.86
416.27	815.71
416.40	779.00
416.53	800.14
416.66	832.14
416.79	813.86
416.93	775.71
417.06	855.71
417.19	816.29
417.32	803.29
417.45	793.00
417.58	762.71
417.72	852.57
417.85	790.00
417.98	799.71
418.11	847.29
418.24	785.57
418.37	792.71
418.51	809.57
418.64	813.29
418.77	883.00
418.90	822.29
419.03	767.43
419.16	818.29
419.29	847.57
419.43	787.86
419.56	775.43
419.69	907.43
419.82	854.00
419.95	801.57
420.08	846.14
420.22	875.86
420.35	932.00
420.48	844.14
420.61	801.29
420.74	750.14
420.87	837.86
421.00	770.71
421.14	793.57
421.27	835.86
421.40	877.43
421.53	830.29
421.66	806.00
421.79	797.14
421.93	800.57
422.06	802.00
422.19	785.43
422.32	845.29
422.45	852.43
422.58	816.43
422.71	794.71
422.85	847.86
422.98	846.43
423.11	761.43
423.24	758.00
423.37	769.86
423.50	777.14
423.63	802.14
423.77	785.86
423.90	780.43
424.03	829.86
424.16	829.86
424.29	802.43
424.42	755.86
424.55	772.71
424.69	775.00
424.82	809.14
424.95	821.29
425.08	781.71
425.21	827.00
425.34	787.86
425.47	801.14
425.60	817.43
425.74	760.43
425.87	789.71
426.00	796.71
426.13	808.71
426.26	774.00
426.39	776.14
426.52	792.00
426.66	865.43
426.79	831.14
426.92	781.00
427.05	894.57
427.18	875.57
427.31	799.57
427.44	801.14
427.57	776.00
427.71	802.86
427.84	771.43
427.97	801.86
428.10	857.29
428.23	814.14
428.36	785.14
428.49	718.00
428.62	928.71
428.76	902.14
428.89	817.14
429.02	755.57
429.15	799.86
429.28	894.29
429.41	785.86
429.54	801.71
429.67	786.00
429.81	838.14
429.94	804.57
430.07	781.43
430.20	847.86
430.33	866.29
430.46	768.71
430.59	775.43
430.72	801.71
430.85	753.86
430.99	798.43
431.12	769.86
431.25	855.86
431.38	876.00
431.51	807.14
431.64	807.86
431.77	882.29
431.90	875.00
432.03	804.57
432.17	771.00
432.30	811.71
432.43	822.43
432.56	804.14
432.69	828.86
432.82	814.71
432.95	863.29
433.08	806.57
433.21	803.86
433.35	792.14
433.48	804.57
433.61	773.43
433.74	799.71
433.87	777.14
434.00	836.14
434.13	777.86
434.26	828.29
434.39	819.14
434.53	832.57
434.66	801.86
434.79	798.00
434.92	799.14
435.05	865.86
435.18	781.57
435.31	824.57
435.44	865.29
435.57	815.57
435.70	792.14
435.84	778.86
435.97	875.14
436.10	904.71
436.23	788.29
436.36	773.14
436.49	784.86
436.62	825.57
436.75	799.71
436.88	828.71
437.01	787.43
437.14	766.71
437.28	752.29
437.41	784.86
437.54	860.57
437.67	837.86
437.80	781.14
437.93	758.29
438.06	916.00
438.19	847.71
438.32	769.57
438.45	776.14
438.58	826.14
438.72	877.43
438.85	837.14
438.98	803.29
439.11	824.57
439.24	875.14
439.37	863.14
439.50	837.43
439.63	856.29
439.76	786.86
439.89	781.57
440.02	785.57
440.15	827.43
440.29	868.71
440.42	811.43
440.55	796.71
440.68	876.57
440.81	926.57
440.94	813.57
441.07	804.29
441.20	901.29
441.33	827.86
441.46	795.43
441.59	784.57
441.72	803.57
441.85	817.00
441.99	844.14
442.12	845.71
442.25	895.00
442.38	831.00
442.51	827.57
442.64	765.14
442.77	811.43
442.90	794.86
443.03	764.43
443.16	788.29
443.29	814.00
443.42	875.43
443.55	788.86
443.68	807.57
443.82	765.43
443.95	789.14
444.08	789.71
444.21	805.29
444.34	780.86
444.47	806.00
444.60	800.86
444.73	822.14
444.86	807.57
444.99	867.00
445.12	825.00
445.25	813.14
445.38	812.00
445.51	851.14
445.64	810.43
445.78	786.43
445.91	753.86
446.04	913.14
446.17	852.71
446.30	755.14
446.43	830.14
446.56	814.43
446.69	779.86
446.82	789.00
446.95	846.29
447.08	869.43
447.21	816.29
447.34	796.29
447.47	851.43
447.60	840.71
447.73	814.14
447.86	840.71
447.99	808.71
448.13	819.57
448.26	836.43
448.39	804.86
448.52	838.71
448.65	845.00
448.78	803.00
448.91	799.00
449.04	837.14
449.17	790.86
449.30	831.86
449.43	816.00
449.56	800.29
449.69	862.71
449.82	806.00
449.95	763.43
450.08	860.71
450.21	836.00
450.34	810.71
450.47	795.29
450.60	839.43
450.73	812.86
450.87	794.14
451.00	822.43
451.13	840.43
451.26	949.57
451.39	787.43
451.52	820.29
451.65	801.29
451.78	797.14
451.91	785.14
452.04	780.14
452.17	895.86
452.30	880.14
452.43	788.71
452.56	787.43
452.69	853.86
452.82	773.57
452.95	841.29
453.08	772.14
453.21	736.43
453.34	844.71
453.47	783.86
453.60	849.43
453.73	904.14
453.86	841.71
453.99	831.00
454.12	825.00
454.25	801.14
454.38	824.57
454.52	769.57
454.65	794.43
454.78	783.71
454.91	755.57
455.04	783.71
455.17	770.57
455.30	782.71
455.43	863.86
455.56	792.57
455.69	765.43
455.82	828.86
455.95	812.43
456.08	767.00
456.21	766.71
456.34	748.71
456.47	742.00
456.60	790.29
456.73	776.71
456.86	794.14
456.99	832.43
457.12	779.71
457.25	790.43
457.38	865.29
457.51	837.71
457.64	817.14
457.77	790.43
457.90	799.00
458.03	789.29
458.16	796.00
458.29	794.14
458.42	797.14
458.55	749.43
458.68	769.86
458.81	792.14
458.94	865.71
459.07	906.14
459.20	763.00
459.33	776.57
459.46	868.71
459.59	900.86
459.72	862.29
459.85	797.00
459.98	872.14
460.11	846.00
460.24	807.57
460.37	766.86
460.50	847.86
460.63	807.00
460.76	796.14
460.89	810.71
461.02	835.00
461.15	835.43
461.28	797.00
461.41	792.71
461.54	881.43
461.67	767.71
461.80	811.86
461.93	853.71
462.06	831.14
462.19	857.71
462.32	792.14
462.45	779.71
462.58	834.43
462.71	791.57
462.84	803.00
462.97	753.71
463.10	796.71
463.23	806.57
463.36	836.86
463.49	812.43
463.62	754.43
463.75	829.00
463.88	795.43
464.01	809.86
464.14	771.00
464.27	895.57
464.40	796.14
464.53	798.29
464.66	830.14
464.79	829.57
464.92	814.00
465.05	771.29
465.18	801.29
465.31	803.57
465.44	803.14
465.57	784.00
465.70	791.71
465.83	918.00
465.96	811.71
466.09	783.29
466.22	842.14
466.35	829.43
466.48	784.43
466.61	786.00
466.74	795.86
466.87	844.57
467.00	834.00
467.13	831.29
467.26	838.86
467.39	758.71
467.52	764.86
467.65	791.43
467.78	866.00
467.91	809.57
468.04	810.57
468.17	780.57
468.30	791.14
468.43	762.14
468.56	771.00
468.69	829.71
468.82	836.57
468.95	773.00
469.08	791.00
469.21	804.86
469.34	840.29
469.47	902.14
469.60	873.43
469.73	810.43
469.86	826.29
469.99	843.71
470.11	778.43
470.24	794.29
470.37	842.71
470.50	809.00
470.63	784.43
470.76	800.86
470.89	845.57
471.02	916.57
471.15	794.00
471.28	801.71
471.41	894.86
471.54	828.29
471.67	800.00
471.80	737.86
471.93	851.43
472.06	819.86
472.19	793.71
472.32	772.29
472.45	908.57
472.58	853.29
472.71	814.71
472.84	788.43
472.97	780.71
473.10	765.57
473.23	843.71
473.36	752.86
473.49	855.57
473.62	850.14
473.74	828.71
473.87	841.71
474.00	778.86
474.13	780.29
474.26	817.29
474.39	837.71
474.52	799.71
474.65	792.71
474.78	804.86
474.91	762.29
475.04	829.14
475.17	914.29
475.30	830.14
475.43	826.14
475.56	860.57
475.69	803.57
475.82	827.00
475.95	781.71
476.08	874.29
476.21	812.57
476.34	845.00
476.46	838.00
476.59	872.86
476.72	793.71
476.85	790.57
476.98	769.43
477.11	856.29
477.24	809.14
477.37	745.71
477.50	790.00
477.63	814.14
477.76	777.71
477.89	747.57
478.02	766.71
478.15	803.86
478.28	791.71
478.41	826.14
478.54	785.86
478.66	839.57
478.79	799.14
478.92	792.71
479.05	797.71
479.18	813.43
479.31	785.29
479.44	784.14
479.57	776.14
479.70	794.00
479.83	813.29
479.96	789.71
480.09	828.00
480.22	940.43
480.35	918.29
480.48	849.29
480.60	815.57
480.73	785.71
480.86	821.00
480.99	794.29
481.12	796.43
481.25	801.14
481.38	863.86
481.51	798.86
481.64	804.29
481.77	828.86
481.90	795.86
482.03	795.86
482.16	788.71
482.29	863.86
482.41	811.29
482.54	833.43
482.67	779.71
482.80	803.00
482.93	854.71
483.06	774.43
483.19	855.43
483.32	830.00
483.45	816.86
483.58	818.86
483.71	839.14
483.84	848.86
483.97	829.43
484.09	804.71
484.22	789.43
484.35	774.43
484.48	757.57
484.61	783.14
484.74	795.71
484.87	812.71
485.00	767.57
485.13	824.43
485.26	765.14
485.39	829.86
485.52	794.86
485.64	864.57
485.77	833.29
485.90	868.29
486.03	773.29
486.16	816.29
486.29	779.29
486.42	801.71
486.55	818.43
486.68	797.86
486.81	830.43
486.94	815.43
487.06	791.14
487.19	835.43
487.32	827.86
487.45	814.14
487.58	787.86
487.71	805.57
487.84	767.43
487.97	836.86
488.10	852.57
488.23	787.86
488.35	757.00
488.48	796.57
488.61	764.29
488.74	788.43
488.87	789.00
489.00	816.86
489.13	894.43
489.26	837.29
489.39	836.00
489.52	844.57
489.64	834.71
489.77	819.43
489.90	803.43
490.03	802.14
490.16	789.29
490.29	783.57
490.42	787.57
490.55	817.00
490.68	773.14
490.81	790.14
490.93	746.57
491.06	862.43
491.19	826.14
491.32	815.43
491.45	836.57
491.58	761.57
491.71	799.29
491.84	791.14
491.97	784.43
492.09	861.57
492.22	826.86
492.35	813.43
492.48	845.71
492.61	827.43
492.74	806.71
492.87	814.86
493.00	805.57
493.12	777.57
493.25	810.71
493.38	802.29
493.51	775.71
493.64	766.00
493.77	804.14
493.90	830.14
494.03	831.43
494.16	862.43
494.28	874.29
494.41	800.29
494.54	806.00
494.67	915.86
494.80	875.29
494.93	799.00
495.06	825.57
495.19	833.00
495.31	809.57
495.44	793.00
495.57	780.86
495.70	828.14
495.83	804.14
495.96	772.29
496.09	812.71
496.22	871.00
496.34	899.29
496.47	804.71
496.60	835.14
496.73	863.14
496.86	852.29
496.99	778.86
497.12	807.71
497.24	750.57
497.37	810.71
497.50	796.57
497.63	779.29
497.76	806.14
497.89	870.43
498.02	841.14
498.15	731.57
498.27	808.00
498.40	857.29
498.53	875.14
498.66	833.57
498.79	848.71
498.92	773.29
499.05	828.00
499.17	811.29
499.30	846.71
499.43	890.00
499.56	826.43
499.69	759.14
499.82	824.00
499.95	793.71
500.07	785.14
500.20	816.29
500.33	850.43
500.46	940.43
500.59	817.86
500.72	822.43
500.85	868.00
500.97	856.43
501.10	853.43
501.23	781.14
501.36	815.00
501.49	878.00
501.62	831.71
501.75	818.43
501.87	858.29
502.00	763.86
502.13	821.14
502.26	824.43
502.39	788.71
502.52	798.43
502.64	754.43
502.77	784.29
502.90	838.57
503.03	804.00
503.16	787.86
503.29	785.57
503.42	856.14
503.54	811.57
503.67	817.14
503.80	808.14
503.93	855.00
504.06	779.71
504.19	807.00
504.31	863.14
504.44	820.86
504.57	827.14
504.70	827.00
504.83	769.00
504.96	831.14
505.08	806.43
505.21	820.86
505.34	908.00
505.47	864.71
505.60	839.00
505.73	862.29
505.85	852.57
505.98	939.43
506.11	808.86
506.24	781.00
506.37	777.86
506.50	817.29
506.62	853.00
506.75	795.29
506.88	779.29
507.01	824.86
507.14	762.00
507.27	795.43
507.39	776.29
507.52	782.57
507.65	787.43
507.78	831.43
507.91	782.29
508.04	869.57
508.16	867.57
508.29	829.00
508.42	800.29
508.55	772.57
508.68	791.29
508.81	859.29
508.93	796.00
509.06	797.14
509.19	839.14
509.32	834.71
509.45	826.00
509.57	835.14
509.70	779.14
509.83	811.29
509.96	778.29
510.09	811.29
510.22	804.00
510.34	815.86
510.47	805.14
510.60	912.29
510.73	829.57
510.86	835.14
510.98	801.43
511.11	790.71
511.24	859.43
511.37	842.57
511.50	809.29
511.63	820.86
511.75	820.14
511.88	819.71
512.01	830.57
512.14	814.57
512.27	821.86
512.39	813.00
512.52	801.86
512.65	821.00
512.78	785.43
512.91	809.71
513.03	819.00
513.16	851.00
513.29	817.00
513.42	791.57
513.55	778.86
513.67	827.57
513.80	759.57
513.93	787.57
514.06	789.71
514.19	830.57
514.31	821.00
514.44	845.00
514.57	800.43
514.70	815.71
514.83	856.71
514.95	787.00
515.08	823.29
515.21	834.71
515.34	816.00
515.47	812.71
515.59	776.86
515.72	825.29
515.85	831.57
515.98	866.71
516.11	820.86
516.23	846.43
516.36	874.43
516.49	832.00
516.62	820.71
516.75	873.57
516.87	872.29
517.00	791.71
517.13	838.71
517.26	863.00
517.39	831.57
517.51	758.86
517.64	810.29
517.77	875.00
517.90	777.71
518.02	806.29
518.15	772.14
518.28	738.29
518.41	807.43
518.54	811.71
518.66	819.57
518.79	777.71
518.92	797.57
519.05	780.29
519.18	802.14
519.30	831.57
519.43	772.00
519.56	786.43
519.69	792.86
519.81	849.71
519.94	795.71
520.07	746.14
520.20	788.29
520.33	819.43
520.45	866.57
520.58	824.00
520.71	825.57
520.84	853.43
520.96	826.86
521.09	803.14
521.22	793.14
521.35	844.86
521.48	844.57
521.60	794.00
521.73	816.14
521.86	869.00
521.99	892.14
522.11	830.14
522.24	804.14
522.37	836.29
522.50	827.57
522.62	860.57
522.75	759.57
522.88	814.86
523.01	789.43
523.14	833.29
523.26	832.29
523.39	886.86
523.52	791.86
523.65	888.29
523.77	851.14
523.90	816.71
524.03	802.86
524.16	801.14
524.28	795.71
524.41	803.00
524.54	803.00
524.67	768.71
524.79	794.29
524.92	834.00
525.05	880.86
525.18	775.43
525.31	849.43
525.43	781.14
525.56	916.43
525.69	799.57
525.82	752.14
525.94	850.43
526.07	851.29
526.20	836.86
526.33	853.71
526.45	927.86
526.58	899.00
526.71	828.14
526.84	809.57
526.96	814.71
527.09	792.86
527.22	799.86
527.35	794.71
527.47	766.00
527.60	880.43
527.73	777.57
527.86	849.29
527.98	827.71
528.11	839.00
528.24	780.14
528.37	801.86
528.49	769.43
528.62	809.00
528.75	844.57
528.88	790.00
529.00	839.14
529.13	852.14
529.26	821.14
529.39	844.71
529.51	934.29
529.64	907.43
529.77	788.00
529.90	798.71
530.02	802.00
530.15	784.00
530.28	746.00
530.40	789.00
530.53	812.43
530.66	836.14
530.79	794.71
530.91	803.14
531.04	790.86
531.17	805.86
531.30	806.57
531.42	810.86
531.55	813.14
531.68	866.43
531.81	790.86
531.93	803.86
532.06	820.43
532.19	774.57
532.31	804.71
532.44	798.14
532.57	837.43
532.70	788.86
532.82	822.43
532.95	839.43
533.08	874.71
533.21	830.86
533.33	783.14
533.46	793.14
533.59	803.29
533.71	913.86
533.84	823.43
533.97	795.86
534.10	785.00
534.22	779.86
534.35	809.71
534.48	817.14
534.61	842.14
534.73	746.86
534.86	777.71
534.99	829.29
535.11	860.57
535.24	827.14
535.37	785.71
535.50	769.43
535.62	779.71
535.75	870.57
535.88	819.71
536.00	791.43
536.13	787.57
536.26	795.71
536.39	785.00
536.51	764.57
536.64	827.00
536.77	808.57
536.89	806.71
537.02	810.14
537.15	828.86
537.28	809.86
537.40	824.43
537.53	786.57
537.66	856.71
537.78	819.14
537.91	779.57
538.04	788.29
538.17	844.43
538.29	831.14
538.42	883.00
538.55	865.71
538.67	840.86
538.80	787.29
538.93	824.29
539.05	813.57
539.18	864.86
539.31	841.29
539.44	818.86
539.56	741.43
539.69	802.14
539.82	792.86
539.94	777.86
540.07	780.86
540.20	873.14
540.32	787.71
540.45	797.71
540.58	789.57
540.71	852.57
540.83	759.86
540.96	789.71
541.09	796.57
541.21	879.00
541.34	865.57
541.47	781.43
541.59	808.14
541.72	883.43
541.85	949.86
541.98	863.86
542.10	807.00
542.23	820.71
542.36	919.14
542.48	824.14
542.61	804.29
542.74	781.00
542.86	797.00
542.99	808.29
543.12	785.43
543.24	812.43
543.37	754.29
543.50	798.00
543.62	788.00
543.75	804.14
543.88	794.71
544.01	817.43
544.13	839.00
544.26	839.86
544.39	787.00
544.51	783.71
544.64	773.86
544.77	836.43
544.89	790.00
545.02	818.14
545.15	789.57
545.27	891.71
545.40	868.29
545.53	835.43
545.65	831.14
545.78	741.43
545.91	770.29
546.03	793.29
546.16	802.86
546.29	792.86
546.41	772.71
546.54	793.57
546.67	775.71
546.79	839.00
546.92	872.71
547.05	761.00
547.17	804.86
547.30	781.71
547.43	831.71
547.56	768.86
547.68	811.00
547.81	768.29
547.94	827.71
548.06	794.57
548.19	772.14
548.32	853.00
548.44	808.43
548.57	826.00
548.70	844.29
548.82	849.14
548.95	834.00
549.08	801.86
549.20	801.86
549.33	885.57
549.45	808.14
549.58	789.00
549.71	763.00
549.83	841.00
549.96	762.29
550.09	808.43
550.21	793.43
550.34	821.71
550.47	793.29
550.59	800.57
550.72	731.71
550.85	804.00
550.97	862.14
551.10	785.86
551.23	793.43
551.35	865.71
551.48	821.86
551.61	799.57
551.73	791.71
551.86	870.86
551.99	866.57
552.11	798.57
552.24	839.86
552.37	813.00
552.49	776.71
552.62	785.57
552.75	828.86
552.87	786.57
553.00	788.57
553.12	815.57
553.25	792.57
553.38	825.29
553.50	858.29
553.63	799.71
553.76	754.00
553.88	800.14
554.01	797.86
554.14	796.86
554.26	838.14
554.39	875.14
554.52	805.86
554.64	810.14
554.77	787.43
554.89	831.43
555.02	853.43
555.15	818.00
555.27	816.14
555.40	809.14
555.53	862.29
555.65	802.71
555.78	773.29
555.91	837.43
556.03	876.71
556.16	778.71
556.29	805.14
556.41	863.29
556.54	860.57
556.66	809.00
556.79	789.86
556.92	813.14
557.04	818.57
557.17	787.29
557.30	792.43
557.42	789.43
557.55	800.57
557.67	820.71
557.80	803.14
557.93	798.43
558.05	805.43
558.18	779.14
558.31	811.57
558.43	847.86
558.56	827.57
558.68	804.00
558.81	778.71
558.94	798.00
559.06	913.00
559.19	792.86
559.32	791.00
559.44	768.29
559.57	813.71
559.69	773.43
559.82	777.57
559.95	786.71
560.07	782.86
560.20	731.43
560.33	799.43
560.45	811.86
560.58	749.57
560.70	802.71
560.83	772.00
560.96	785.43
561.08	792.71
561.21	819.00
561.33	767.57
561.46	755.29
561.59	842.57
561.71	783.71
561.84	818.43
561.97	770.57
562.09	837.86
