Wavelength (nm)	Intensity
377.35	813.12
377.48	596.00
377.62	617.00
377.75	619.25
377.88	817.50
378.02	808.50
378.15	812.12
378.28	784.75
378.41	852.88
378.55	820.75
378.68	808.62
378.81	790.25
378.95	814.25
379.08	805.75
379.21	774.00
379.35	828.75
379.48	832.50
379.61	887.50
379.74	811.25
379.88	796.25
380.01	865.38
380.14	922.38
380.28	853.00
380.41	779.12
380.54	831.12
380.68	841.25
380.81	754.75
380.94	826.62
381.07	880.50
381.21	881.50
381.34	803.50
381.47	752.12
381.61	955.25
381.74	821.88
381.87	778.50
382.00	832.62
382.14	900.00
382.27	852.25
382.40	799.50
382.54	876.00
382.67	875.00
382.80	787.00
382.93	784.12
383.07	809.75
383.20	814.00
383.33	849.38
383.47	787.00
383.60	769.75
383.73	951.50
383.86	840.62
384.00	805.88
384.13	797.62
384.26	844.62
384.40	861.00
384.53	810.50
384.66	850.12
384.79	822.25
384.93	793.75
385.06	802.62
385.19	825.38
385.33	928.75
385.46	838.75
385.59	788.50
385.72	829.50
385.86	771.25
385.99	808.00
386.12	801.75
386.25	784.88
386.39	855.38
386.52	870.12
386.65	809.12
386.79	797.38
386.92	793.00
387.05	890.62
387.18	764.12
387.32	778.88
387.45	845.12
387.58	820.88
387.71	795.88
387.85	794.25
387.98	830.00
388.11	840.62
388.25	830.38
388.38	816.12
388.51	843.88
388.64	855.62
388.78	788.38
388.91	769.38
389.04	809.12
389.17	916.88
389.31	824.00
389.44	836.62
389.57	866.12
389.70	843.50
389.84	801.12
389.97	796.88
390.10	796.12
390.24	843.50
390.37	806.62
390.50	793.38
390.63	884.75
390.77	823.12
390.90	822.75
391.03	812.62
391.16	771.75
391.30	796.50
391.43	802.25
391.56	798.62
391.69	785.50
391.83	862.50
391.96	821.50
392.09	803.25
392.22	900.88
392.36	827.12
392.49	778.62
392.62	801.12
392.75	837.62
392.89	880.25
393.02	778.88
393.15	779.62
393.28	768.88
393.42	895.12
393.55	767.00
393.68	793.62
393.81	747.12
393.95	793.50
394.08	786.50
394.21	790.38
394.34	854.38
394.48	839.00
394.61	850.12
394.74	830.62
394.87	860.12
395.01	828.50
395.14	839.25
395.27	791.12
395.40	906.12
395.54	901.00
395.67	819.75
395.80	804.62
395.93	844.00
396.07	797.00
396.20	788.25
396.33	744.00
396.46	791.00
396.59	813.50
396.73	804.88
396.86	780.75
396.99	868.38
397.12	827.12
397.26	818.00
397.39	805.00
397.52	1099.12
397.65	917.88
397.79	813.25
397.92	804.88
398.05	858.25
398.18	801.50
398.32	810.50
398.45	835.25
398.58	833.12
398.71	837.62
398.84	771.25
398.98	813.38
399.11	845.38
399.24	833.88
399.37	803.12
399.51	776.12
399.64	816.25
399.77	812.88
399.90	813.38
400.03	809.62
400.17	765.38
400.30	874.75
400.43	848.75
400.56	814.62
400.70	814.12
400.83	789.75
400.96	781.62
401.09	819.00
401.23	825.00
401.36	882.00
401.49	797.62
401.62	814.38
401.75	810.75
401.89	785.00
402.02	790.88
402.15	814.75
402.28	831.00
402.41	827.50
402.55	796.88
402.68	806.88
402.81	884.12
402.94	857.75
403.08	793.88
403.21	775.12
403.34	851.88
403.47	852.38
403.60	805.50
403.74	837.38
403.87	851.12
404.00	785.88
404.13	791.62
404.26	762.38
404.40	780.00
404.53	829.38
404.66	803.75
404.79	771.75
404.93	853.00
405.06	824.12
405.19	763.50
405.32	824.12
405.45	835.50
405.59	851.88
405.72	815.00
405.85	788.88
405.98	974.75
406.11	787.62
406.25	787.62
406.38	800.12
406.51	840.25
406.64	811.12
406.77	769.75
406.91	773.38
407.04	839.88
407.17	803.25
407.30	825.25
407.43	808.25
407.57	891.62
407.70	870.62
407.83	783.38
407.96	812.88
408.09	773.00
408.23	899.88
408.36	810.25
408.49	798.75
408.62	927.88
408.75	827.25
408.89	789.75
409.02	831.00
409.15	821.50
409.28	899.25
409.41	845.00
409.55	795.25
409.68	935.12
409.81	831.00
409.94	792.00
410.07	821.38
410.20	816.00
410.34	799.88
410.47	812.38
410.60	825.38
410.73	849.88
410.86	788.50
411.00	812.00
411.13	788.38
411.26	822.75
411.39	817.88
411.52	830.25
411.66	798.00
411.79	801.00
411.92	783.88
412.05	804.00
412.18	801.25
412.31	835.62
412.45	862.88
412.58	849.38
412.71	773.62
412.84	834.62
412.97	894.38
413.11	815.12
413.24	827.50
413.37	857.75
413.50	912.50
413.63	830.00
413.76	797.00
413.90	847.75
414.03	800.50
414.16	799.75
414.29	832.62
414.42	815.88
414.56	918.12
414.69	801.38
414.82	810.25
414.95	817.50
415.08	831.38
415.21	806.50
415.35	828.25
415.48	740.38
415.61	861.50
415.74	865.00
415.87	771.88
416.00	825.12
416.14	934.38
416.27	825.88
416.40	784.25
416.53	813.88
416.66	837.50
416.79	818.25
416.93	777.38
417.06	828.62
417.19	810.88
417.32	805.25
417.45	798.88
417.58	770.75
417.72	856.75
417.85	790.88
417.98	812.38
418.11	852.25
418.24	790.50
418.37	798.00
418.51	816.62
418.64	821.50
418.77	883.38
418.90	825.50
419.03	773.88
419.16	831.50
419.29	861.25
419.43	795.50
419.56	782.88
419.69	922.50
419.82	865.38
419.95	810.62
420.08	855.00
420.22	880.75
420.35	934.00
420.48	855.88
420.61	805.00
420.74	759.00
420.87	848.88
421.00	782.00
421.14	801.25
421.27	862.25
421.40	894.25
421.53	836.75
421.66	804.62
421.79	818.25
421.93	815.75
422.06	809.38
422.19	791.25
422.32	854.62
422.45	856.25
422.58	826.50
422.71	800.62
422.85	861.62
422.98	857.75
423.11	770.50
423.24	758.00
423.37	784.00
423.50	790.25
423.63	815.62
423.77	781.75
423.90	785.88
424.03	837.00
424.16	842.62
424.29	811.12
424.42	760.25
424.55	783.00
424.69	781.50
424.82	819.38
424.95	824.12
425.08	788.12
425.21	833.75
425.34	794.50
425.47	811.12
425.60	828.75
425.74	766.62
425.87	796.25
426.00	807.62
426.13	823.75
426.26	778.25
426.39	790.25
426.52	801.88
426.66	878.50
426.79	835.38
426.92	782.12
427.05	910.00
427.18	870.00
427.31	804.00
427.44	804.88
427.57	789.12
427.71	814.88
427.84	778.38
427.97	815.25
428.10	871.38
428.23	819.50
428.36	796.75
428.49	724.62
428.62	941.62
428.76	909.62
428.89	823.75
429.02	766.25
429.15	811.00
429.28	912.38
429.41	792.00
429.54	797.88
429.67	793.50
429.81	842.88
429.94	813.75
430.07	793.75
430.20	863.25
430.33	878.25
430.46	775.00
430.59	778.25
430.72	811.00
430.85	765.25
430.99	807.25
431.12	782.75
431.25	870.50
431.38	876.38
431.51	813.12
431.64	812.38
431.77	895.25
431.90	884.75
432.03	812.25
432.17	783.75
432.30	823.25
432.43	835.50
432.56	805.88
432.69	830.25
432.82	829.88
432.95	866.00
433.08	813.62
433.21	813.62
433.35	798.75
433.48	817.25
433.61	776.38
433.74	803.50
433.87	797.50
434.00	846.00
434.13	778.12
434.26	836.38
434.39	835.75
434.53	847.12
434.66	808.38
434.79	806.00
434.92	796.75
435.05	881.88
435.18	793.50
435.31	832.75
435.44	877.88
435.57	820.25
435.70	810.25
435.84	784.00
435.97	882.62
436.10	929.88
436.23	798.38
436.36	786.38
436.49	793.25
436.62	828.38
436.75	807.62
436.88	831.75
437.01	790.75
437.14	777.25
437.28	752.88
437.41	793.88
437.54	873.50
437.67	846.12
437.80	780.75
437.93	763.62
438.06	933.12
438.19	861.38
438.32	772.25
438.45	781.62
438.58	839.38
438.72	887.00
438.85	854.38
438.98	803.50
439.11	827.50
439.24	885.00
439.37	866.62
439.50	836.12
439.63	869.25
439.76	795.88
439.89	782.38
440.02	790.75
440.15	838.12
440.29	881.50
440.42	816.12
440.55	803.38
440.68	891.75
440.81	939.00
440.94	819.62
441.07	814.50
441.20	897.50
441.33	825.62
441.46	801.62
441.59	794.62
441.72	814.00
441.85	824.50
441.99	849.38
442.12	849.88
442.25	900.50
442.38	842.75
442.51	835.50
442.64	774.38
442.77	824.12
442.90	801.75
443.03	770.12
443.16	795.25
443.29	820.62
443.42	888.12
443.55	798.38
443.68	825.25
443.82	771.62
443.95	801.88
444.08	807.50
444.21	809.62
444.34	789.50
444.47	809.62
444.60	807.12
444.73	824.25
444.86	816.50
444.99	878.50
445.12	833.25
445.25	816.12
445.38	825.50
445.51	854.75
445.64	821.12
445.78	793.62
445.91	753.88
446.04	925.75
446.17	859.00
446.30	761.88
446.43	834.75
446.56	824.75
446.69	785.12
446.82	787.62
446.95	861.88
447.08	863.62
447.21	824.38
447.34	798.50
447.47	858.38
447.60	853.00
447.73	815.75
447.86	844.50
447.99	823.50
448.13	841.38
448.26	849.62
448.39	808.25
448.52	853.75
448.65	853.25
448.78	807.62
448.91	805.38
449.04	843.75
449.17	799.00
449.30	836.12
449.43	827.75
449.56	815.00
449.69	874.75
449.82	814.75
449.95	764.75
450.08	870.12
450.21	847.88
450.34	811.25
450.47	812.00
450.60	857.25
450.73	820.62
450.87	798.75
451.00	826.38
451.13	850.88
451.26	969.25
451.39	798.25
451.52	829.88
451.65	804.12
451.78	803.12
451.91	799.75
452.04	785.88
452.17	902.75
452.30	901.50
452.43	796.88
452.56	796.00
452.69	863.25
452.82	781.50
452.95	845.50
453.08	787.25
453.21	749.38
453.34	858.38
453.47	790.00
453.60	857.38
453.73	907.38
453.86	840.38
453.99	828.25
454.12	824.12
454.25	806.38
454.38	829.62
454.52	783.00
454.65	800.62
454.78	794.12
454.91	767.00
455.04	793.88
455.17	771.88
455.30	786.75
455.43	877.25
455.56	806.88
455.69	770.88
455.82	841.00
455.95	836.75
456.08	771.62
456.21	772.50
456.34	755.38
456.47	748.38
456.60	794.88
456.73	786.75
456.86	804.75
456.99	836.88
457.12	783.88
457.25	794.00
457.38	869.25
457.51	848.25
457.64	826.25
457.77	799.62
457.90	811.00
458.03	791.50
458.16	798.88
458.29	806.75
458.42	807.12
458.55	760.00
458.68	780.62
458.81	801.62
458.94	871.75
459.07	918.75
459.20	776.25
459.33	782.62
459.46	875.88
459.59	908.50
459.72	870.25
459.85	805.38
459.98	886.00
460.11	845.25
460.24	817.00
460.37	771.38
460.50	855.25
460.63	831.88
460.76	799.50
460.89	816.50
461.02	837.25
461.15	852.38
461.28	809.12
461.41	800.38
461.54	888.38
461.67	782.50
461.80	818.50
461.93	855.75
462.06	839.88
462.19	869.12
462.32	794.38
462.45	794.38
462.58	851.50
462.71	800.12
462.84	807.38
462.97	754.75
463.10	804.75
463.23	823.25
463.36	846.75
463.49	811.75
463.62	762.00
463.75	839.62
463.88	798.50
464.01	804.50
464.14	770.38
464.27	902.88
464.40	800.12
464.53	808.50
464.66	842.75
464.79	836.38
464.92	828.12
465.05	783.00
465.18	809.75
465.31	813.62
465.44	808.25
465.57	794.25
465.70	795.62
465.83	921.12
465.96	820.50
466.09	790.50
466.22	857.75
466.35	844.12
466.48	794.38
466.61	789.12
466.74	802.75
466.87	855.62
467.00	836.25
467.13	835.38
467.26	856.75
467.39	766.25
467.52	768.62
467.65	802.75
467.78	873.75
467.91	813.12
468.04	823.38
468.17	791.50
468.30	800.50
468.43	773.38
468.56	785.38
468.69	829.50
468.82	840.12
468.95	774.75
469.08	797.00
469.21	807.00
469.34	849.00
469.47	913.50
469.60	891.25
469.73	821.75
469.86	830.25
469.99	857.25
470.11	783.12
470.24	789.88
470.37	846.50
470.50	827.88
470.63	793.12
470.76	811.62
470.89	854.50
471.02	926.75
471.15	800.25
471.28	802.75
471.41	915.62
471.54	840.88
471.67	795.25
471.80	753.88
471.93	868.38
472.06	837.38
472.19	802.50
472.32	776.25
472.45	914.62
472.58	860.50
472.71	816.50
472.84	796.00
472.97	792.75
473.10	775.25
473.23	847.00
473.36	762.12
473.49	872.25
473.62	852.75
473.74	829.62
473.87	853.38
474.00	789.62
474.13	789.88
474.26	827.75
474.39	837.50
474.52	816.38
474.65	797.75
474.78	809.38
474.91	761.12
475.04	838.12
475.17	943.75
475.30	838.88
475.43	833.38
475.56	875.50
475.69	818.38
475.82	843.62
475.95	790.25
476.08	885.62
476.21	823.38
476.34	852.62
476.46	848.25
476.59	880.00
476.72	794.88
476.85	799.38
476.98	778.25
477.11	859.88
477.24	819.00
477.37	749.38
477.50	796.75
477.63	824.00
477.76	782.62
477.89	745.12
478.02	773.62
478.15	811.12
478.28	798.25
478.41	829.25
478.54	798.38
478.66	858.12
478.79	807.00
478.92	810.25
479.05	805.88
479.18	826.25
479.31	789.38
479.44	792.12
479.57	784.88
479.70	805.88
479.83	827.50
479.96	796.50
480.09	831.12
480.22	944.25
480.35	920.00
480.48	857.25
480.60	820.50
480.73	799.75
480.86	841.62
480.99	805.62
481.12	799.75
481.25	814.50
481.38	875.38
481.51	796.25
481.64	813.38
481.77	839.38
481.90	805.25
482.03	813.62
482.16	798.62
482.29	870.00
482.41	818.88
482.54	840.00
482.67	788.62
482.80	813.00
482.93	865.75
483.06	784.38
483.19	867.38
483.32	847.12
483.45	809.75
483.58	821.38
483.71	844.88
483.84	855.00
483.97	833.00
484.09	816.62
484.22	796.00
484.35	782.12
484.48	763.00
484.61	791.25
484.74	797.88
484.87	833.38
485.00	777.75
485.13	837.12
485.26	779.88
485.39	845.62
485.52	817.50
485.64	881.62
485.77	845.62
485.90	861.62
486.03	775.88
486.16	828.00
486.29	778.88
486.42	810.62
486.55	828.88
486.68	799.50
486.81	837.50
486.94	827.00
487.06	805.25
487.19	843.50
487.32	838.75
487.45	820.88
487.58	796.50
487.71	811.88
487.84	778.12
487.97	840.38
488.10	857.50
488.23	802.38
488.35	764.88
488.48	805.75
488.61	774.88
488.74	795.38
488.87	787.00
489.00	816.62
489.13	908.75
489.26	850.75
489.39	846.00
489.52	854.00
489.64	846.88
489.77	824.50
489.90	818.25
490.03	808.62
490.16	798.62
490.29	793.88
490.42	791.62
490.55	823.62
490.68	784.75
490.81	793.75
490.93	758.25
491.06	873.50
491.19	836.38
491.32	825.62
491.45	839.25
491.58	767.25
491.71	811.00
491.84	800.00
491.97	802.38
492.09	879.25
492.22	841.88
492.35	817.25
492.48	849.25
492.61	824.62
492.74	810.00
492.87	827.00
493.00	817.75
493.12	788.50
493.25	820.62
493.38	806.75
493.51	786.88
493.64	775.00
493.77	808.50
493.90	835.75
494.03	839.25
494.16	878.25
494.28	878.62
494.41	811.00
494.54	814.62
494.67	929.88
494.80	889.25
494.93	816.12
495.06	833.75
495.19	847.62
495.31	824.50
495.44	799.38
495.57	784.12
495.70	837.12
495.83	809.38
495.96	783.12
496.09	825.75
496.22	887.62
496.34	907.75
496.47	815.62
496.60	831.75
496.73	861.38
496.86	852.75
496.99	788.12
497.12	817.00
497.24	760.00
497.37	823.75
497.50	807.75
497.63	790.62
497.76	821.50
497.89	878.00
498.02	845.50
498.15	740.50
498.27	812.88
498.40	866.75
498.53	877.00
498.66	829.50
498.79	862.38
498.92	780.88
499.05	826.62
499.17	816.88
499.30	858.75
499.43	908.00
499.56	841.50
499.69	764.38
499.82	828.62
499.95	798.25
500.07	790.12
500.20	819.62
500.33	864.38
500.46	961.25
500.59	822.38
500.72	828.88
500.85	875.12
500.97	875.25
501.10	863.25
501.23	781.38
501.36	821.50
501.49	887.00
501.62	837.88
501.75	822.88
501.87	875.25
502.00	772.62
502.13	829.25
502.26	834.62
502.39	795.12
502.52	802.88
502.64	769.62
502.77	794.38
502.90	851.25
503.03	817.38
503.16	794.62
503.29	789.25
503.42	870.75
503.54	824.88
503.67	821.88
503.80	828.12
503.93	865.12
504.06	787.00
504.19	810.50
504.31	864.75
504.44	836.25
504.57	841.50
504.70	829.38
504.83	772.00
504.96	838.38
505.08	817.50
505.21	826.38
505.34	917.38
505.47	877.25
505.60	856.50
505.73	872.38
505.85	859.88
505.98	946.00
506.11	815.62
506.24	782.75
506.37	784.12
506.50	829.50
506.62	864.12
506.75	795.75
506.88	780.62
507.01	833.12
507.14	770.62
507.27	814.88
507.39	786.88
507.52	792.12
507.65	797.38
507.78	835.25
507.91	790.00
508.04	876.00
508.16	875.88
508.29	831.62
508.42	803.38
508.55	785.75
508.68	797.00
508.81	862.12
508.93	800.25
509.06	807.00
509.19	860.12
509.32	844.50
509.45	829.88
509.57	840.62
509.70	791.62
509.83	821.62
509.96	778.88
510.09	819.75
510.22	816.62
510.34	817.12
510.47	814.12
510.60	920.62
510.73	836.62
510.86	836.62
510.98	805.38
511.11	801.00
511.24	864.38
511.37	850.25
511.50	807.38
511.63	827.75
511.75	831.00
511.88	821.12
512.01	840.38
512.14	824.25
512.27	835.62
512.39	815.50
512.52	811.88
512.65	827.00
512.78	793.38
512.91	820.25
513.03	820.75
513.16	857.38
513.29	829.50
513.42	808.12
513.55	783.12
513.67	845.50
513.80	769.88
513.93	796.25
514.06	798.25
514.19	838.00
514.31	836.88
514.44	857.88
514.57	811.50
514.70	830.12
514.83	873.12
514.95	796.62
515.08	830.12
515.21	846.62
515.34	824.62
515.47	814.88
515.59	791.62
515.72	844.62
515.85	848.50
515.98	876.25
516.11	829.88
516.23	860.75
516.36	887.00
516.49	843.88
516.62	824.00
516.75	883.62
516.87	884.12
517.00	804.50
517.13	843.50
517.26	869.75
517.39	838.12
517.51	756.50
517.64	818.75
517.77	896.75
517.90	791.50
518.02	824.00
518.15	793.62
518.28	744.00
518.41	815.88
518.54	817.38
518.66	831.88
518.79	785.50
518.92	808.62
519.05	788.00
519.18	816.12
519.30	849.12
519.43	779.50
519.56	789.75
519.69	799.00
519.81	867.12
519.94	803.75
520.07	753.75
520.20	794.25
520.33	826.25
520.45	885.12
520.58	833.38
520.71	833.25
520.84	869.88
520.96	837.00
521.09	816.12
521.22	791.50
521.35	851.25
521.48	848.00
521.60	791.38
521.73	823.12
521.86	876.50
521.99	901.00
522.11	834.38
522.24	811.25
522.37	844.12
522.50	831.25
522.62	868.12
522.75	767.75
522.88	828.75
523.01	800.00
523.14	847.88
523.26	834.00
523.39	884.25
523.52	791.25
523.65	901.88
523.77	852.38
523.90	824.88
524.03	811.12
524.16	811.25
524.28	804.50
524.41	804.38
524.54	815.12
524.67	774.88
524.79	800.25
524.92	841.25
525.05	890.00
525.18	785.75
525.31	856.50
525.43	782.88
525.56	932.75
525.69	802.62
525.82	759.12
525.94	857.38
526.07	856.12
526.20	843.00
526.33	860.12
526.45	936.00
526.58	911.88
526.71	840.88
526.84	816.12
526.96	828.00
527.09	793.75
527.22	805.38
527.35	803.88
527.47	776.62
527.60	888.38
527.73	788.12
527.86	853.38
527.98	840.75
528.11	844.62
528.24	789.12
528.37	807.12
528.49	774.75
528.62	820.75
528.75	850.50
528.88	792.88
529.00	851.88
529.13	869.00
529.26	822.75
529.39	847.88
529.51	946.88
529.64	919.75
529.77	793.38
529.90	803.50
530.02	805.88
530.15	794.38
530.28	753.00
530.40	790.38
530.53	811.38
530.66	831.12
530.79	801.50
530.91	818.25
531.04	797.88
531.17	808.25
531.30	810.88
531.42	815.12
531.55	827.12
531.68	885.25
531.81	796.88
531.93	814.12
532.06	828.62
532.19	782.88
532.31	811.38
532.44	812.00
532.57	843.75
532.70	793.12
532.82	820.88
532.95	847.00
533.08	881.25
533.21	852.12
533.33	785.62
533.46	795.88
533.59	806.00
533.71	929.25
533.84	835.25
533.97	803.88
534.10	799.12
534.22	782.00
534.35	812.50
534.48	819.25
534.61	844.12
534.73	755.00
534.86	786.50
534.99	830.12
535.11	871.12
535.24	828.12
535.37	787.62
535.50	780.00
535.62	784.00
535.75	878.62
535.88	822.38
536.00	792.75
536.13	798.38
536.26	803.38
536.39	797.25
536.51	773.62
536.64	837.00
536.77	812.12
536.89	814.38
537.02	822.12
537.15	840.12
537.28	818.00
537.40	827.12
537.53	802.50
537.66	861.50
537.78	820.00
537.91	784.00
538.04	793.38
538.17	849.62
538.29	840.00
538.42	891.50
538.55	868.88
538.67	847.00
538.80	790.50
538.93	830.75
539.05	815.25
539.18	880.38
539.31	856.62
539.44	830.62
539.56	749.12
539.69	806.75
539.82	805.75
539.94	810.50
540.07	787.62
540.20	881.38
540.32	786.38
540.45	816.62
540.58	806.25
540.71	859.25
540.83	763.62
540.96	797.12
541.09	808.12
541.21	889.12
541.34	880.25
541.47	787.12
541.59	810.50
541.72	892.38
541.85	960.12
541.98	873.12
542.10	812.75
542.23	837.38
542.36	938.25
542.48	831.50
542.61	812.88
542.74	778.12
542.86	798.50
542.99	810.62
543.12	792.12
543.24	826.12
543.37	760.38
543.50	808.75
543.62	788.62
543.75	811.00
543.88	804.25
544.01	830.25
544.13	842.38
544.26	846.38
544.39	795.25
544.51	795.50
544.64	782.62
544.77	842.12
544.89	797.12
545.02	825.00
545.15	793.38
545.27	898.12
545.40	870.50
545.53	843.75
545.65	840.88
545.78	749.38
545.91	778.25
546.03	798.50
546.16	807.75
546.29	797.38
546.41	775.25
546.54	804.75
546.67	779.12
546.79	854.25
546.92	893.75
547.05	763.88
547.17	817.00
547.30	786.50
547.43	840.62
547.56	779.12
547.68	811.62
547.81	769.38
547.94	837.50
548.06	806.88
548.19	779.88
548.32	872.25
548.44	831.12
548.57	827.75
548.70	849.00
548.82	856.38
548.95	845.12
549.08	813.00
549.20	804.75
549.33	899.75
549.45	822.88
549.58	808.38
549.71	769.88
549.83	862.12
549.96	772.00
550.09	819.75
550.21	789.75
550.34	824.38
550.47	804.38
550.59	801.75
550.72	745.62
550.85	814.38
550.97	878.62
551.10	798.00
551.23	808.00
551.35	881.38
551.48	829.38
551.61	807.88
551.73	798.38
551.86	887.62
551.99	876.25
552.11	819.12
552.24	849.62
552.37	827.00
552.49	787.12
552.62	797.62
552.75	842.88
552.87	797.62
553.00	787.12
553.12	819.62
553.25	800.88
553.38	838.00
553.50	872.50
553.63	813.38
553.76	754.12
553.88	816.75
554.01	806.00
554.14	802.38
554.26	840.00
554.39	892.38
554.52	818.62
554.64	812.62
554.77	794.38
554.89	847.75
555.02	862.00
555.15	831.00
555.27	812.88
555.40	819.50
555.53	871.62
555.65	803.62
555.78	776.50
555.91	848.88
556.03	892.38
556.16	778.50
556.29	819.50
556.41	876.38
556.54	870.12
556.66	810.88
556.79	790.38
556.92	818.25
557.04	829.50
557.17	792.25
557.30	797.12
557.42	804.00
557.55	810.38
557.67	830.38
557.80	801.75
557.93	816.88
558.05	812.75
558.18	781.00
558.31	817.38
558.43	857.75
558.56	831.12
558.68	810.75
558.81	784.00
558.94	803.25
559.06	923.88
559.19	796.12
559.32	796.50
559.44	769.88
559.57	818.50
559.69	785.88
559.82	783.50
559.95	798.75
560.07	802.00
560.20	741.75
560.33	809.12
560.45	830.00
560.58	763.00
560.70	812.38
560.83	769.50
560.96	804.88
561.08	802.75
561.21	828.00
561.33	771.75
561.46	763.62
561.59	845.75
561.71	792.25
561.84	824.50
561.97	774.12
562.09	840.62
