Wavelength (nm)	Intensity
377.35	811.00
377.48	601.00
377.62	621.00
377.75	613.00
377.88	809.00
378.02	774.00
378.15	797.00
378.28	780.00
378.41	861.00
378.55	825.00
378.68	801.00
378.81	774.00
378.95	805.00
379.08	801.00
379.21	755.00
379.35	825.00
379.48	814.00
379.61	899.00
379.74	824.00
379.88	807.00
380.01	881.00
380.14	942.00
380.28	876.00
380.41	796.00
380.54	846.00
380.68	842.00
380.81	782.00
380.94	863.00
381.07	893.00
381.21	892.00
381.34	831.00
381.47	759.00
381.61	955.00
381.74	837.00
381.87	784.00
382.00	844.00
382.14	920.00
382.27	867.00
382.40	795.00
382.54	885.00
382.67	897.00
382.80	796.00
382.93	817.00
383.07	830.00
383.20	830.00
383.33	867.00
383.47	801.00
383.60	787.00
383.73	968.00
383.86	862.00
384.00	825.00
384.13	825.00
384.26	872.00
384.40	898.00
384.53	838.00
384.66	881.00
384.79	861.00
384.93	821.00
385.06	842.00
385.19	852.00
385.33	962.00
385.46	853.00
385.59	806.00
385.72	854.00
385.86	797.00
385.99	824.00
386.12	841.00
386.25	811.00
386.39	890.00
386.52	902.00
386.65	827.00
386.79	833.00
386.92	812.00
387.05	904.00
387.18	786.00
387.32	819.00
387.45	872.00
387.58	858.00
387.71	838.00
387.85	824.00
387.98	857.00
388.11	875.00
388.25	851.00
388.38	827.00
388.51	880.00
388.64	900.00
388.78	822.00
388.91	814.00
389.04	830.00
389.17	946.00
389.31	841.00
389.44	879.00
389.57	887.00
389.70	859.00
389.84	826.00
389.97	839.00
390.10	830.00
390.24	873.00
390.37	838.00
390.50	833.00
390.63	909.00
390.77	843.00
390.90	853.00
391.03	858.00
391.16	804.00
391.30	835.00
391.43	836.00
391.56	832.00
391.69	818.00
391.83	898.00
391.96	858.00
392.09	825.00
392.22	935.00
392.36	872.00
392.49	817.00
392.62	843.00
392.75	861.00
392.89	906.00
393.02	803.00
393.15	809.00
393.28	797.00
393.42	937.00
393.55	804.00
393.68	829.00
393.81	786.00
393.95	830.00
394.08	835.00
394.21	834.00
394.34	900.00
394.48	892.00
394.61	898.00
394.74	876.00
394.87	894.00
395.01	880.00
395.14	893.00
395.27	833.00
395.40	949.00
395.54	954.00
395.67	866.00
395.80	844.00
395.93	884.00
396.07	833.00
396.20	821.00
396.33	766.00
396.46	841.00
396.59	864.00
396.73	840.00
396.86	817.00
396.99	906.00
397.12	872.00
397.26	872.00
397.39	858.00
397.52	1137.00
397.65	957.00
397.79	880.00
397.92	853.00
398.05	922.00
398.18	852.00
398.32	850.00
398.45	880.00
398.58	882.00
398.71	891.00
398.84	819.00
398.98	860.00
399.11	891.00
399.24	890.00
399.37	860.00
399.51	830.00
399.64	875.00
399.77	872.00
399.90	878.00
400.03	868.00
400.17	841.00
400.30	934.00
400.43	892.00
400.56	870.00
400.70	870.00
400.83	837.00
400.96	844.00
401.09	890.00
401.23	870.00
401.36	936.00
401.49	835.00
401.62	856.00
401.75	868.00
401.89	840.00
402.02	855.00
402.15	872.00
402.28	903.00
402.41	901.00
402.55	865.00
402.68	872.00
402.81	963.00
402.94	907.00
403.08	849.00
403.21	853.00
403.34	915.00
403.47	920.00
403.60	877.00
403.74	909.00
403.87	904.00
404.00	866.00
404.13	862.00
404.26	822.00
404.40	852.00
404.53	891.00
404.66	860.00
404.79	849.00
404.93	928.00
405.06	859.00
405.19	819.00
405.32	904.00
405.45	896.00
405.59	936.00
405.72	875.00
405.85	848.00
405.98	1048.00
406.11	858.00
406.25	847.00
406.38	865.00
406.51	918.00
406.64	868.00
406.77	839.00
406.91	846.00
407.04	907.00
407.17	869.00
407.30	888.00
407.43	883.00
407.57	949.00
407.70	919.00
407.83	854.00
407.96	899.00
408.09	855.00
408.23	980.00
408.36	872.00
408.49	883.00
408.62	1001.00
408.75	905.00
408.89	877.00
409.02	897.00
409.15	890.00
409.28	975.00
409.41	926.00
409.55	864.00
409.68	1001.00
409.81	913.00
409.94	863.00
410.07	899.00
410.20	916.00
410.34	882.00
410.47	916.00
410.60	909.00
410.73	922.00
410.86	864.00
411.00	897.00
411.13	860.00
411.26	885.00
411.39	899.00
411.52	917.00
411.66	892.00
411.79	886.00
411.92	867.00
412.05	888.00
412.18	892.00
412.31	922.00
412.45	942.00
412.58	935.00
412.71	867.00
412.84	928.00
412.97	968.00
413.11	900.00
413.24	910.00
413.37	939.00
413.50	1002.00
413.63	912.00
413.76	896.00
413.90	938.00
414.03	900.00
414.16	898.00
414.29	920.00
414.42	916.00
414.56	1018.00
414.69	907.00
414.82	903.00
414.95	910.00
415.08	931.00
415.21	910.00
415.35	930.00
415.48	844.00
415.61	948.00
415.74	972.00
415.87	859.00
416.00	925.00
416.14	1012.00
416.27	936.00
416.40	876.00
416.53	902.00
416.66	950.00
416.79	928.00
416.93	886.00
417.06	970.00
417.19	901.00
417.32	890.00
417.45	906.00
417.58	861.00
417.72	945.00
417.85	902.00
417.98	927.00
418.11	960.00
418.24	917.00
418.37	904.00
418.51	923.00
418.64	930.00
418.77	1001.00
418.90	931.00
419.03	878.00
419.16	925.00
419.29	962.00
419.43	888.00
419.56	877.00
419.69	1022.00
419.82	978.00
419.95	919.00
420.08	962.00
420.22	980.00
420.35	1047.00
420.48	987.00
420.61	943.00
420.74	880.00
420.87	956.00
421.00	878.00
421.14	911.00
421.27	949.00
421.40	1004.00
421.53	958.00
421.66	932.00
421.79	926.00
421.93	945.00
422.06	933.00
422.19	918.00
422.32	969.00
422.45	971.00
422.58	943.00
422.71	919.00
422.85	970.00
422.98	970.00
423.11	871.00
423.24	880.00
423.37	903.00
423.50	921.00
423.63	927.00
423.77	906.00
423.90	919.00
424.03	955.00
424.16	968.00
424.29	945.00
424.42	914.00
424.55	916.00
424.69	909.00
424.82	945.00
424.95	927.00
425.08	915.00
425.21	967.00
425.34	931.00
425.47	938.00
425.60	960.00
425.74	917.00
425.87	940.00
426.00	946.00
426.13	972.00
426.26	930.00
426.39	917.00
426.52	949.00
426.66	1031.00
426.79	977.00
426.92	918.00
427.05	1047.00
427.18	1038.00
427.31	955.00
427.44	956.00
427.57	928.00
427.71	964.00
427.84	915.00
427.97	958.00
428.10	1023.00
428.23	969.00
428.36	923.00
428.49	873.00
428.62	1075.00
428.76	1062.00
428.89	980.00
429.02	910.00
429.15	956.00
429.28	1046.00
429.41	953.00
429.54	968.00
429.67	964.00
429.81	985.00
429.94	981.00
430.07	966.00
430.20	1017.00
430.33	1044.00
430.46	944.00
430.59	924.00
430.72	979.00
430.85	926.00
430.99	985.00
431.12	935.00
431.25	1010.00
431.38	1048.00
431.51	971.00
431.64	983.00
431.77	1055.00
431.90	1057.00
432.03	978.00
432.17	943.00
432.30	979.00
432.43	1013.00
432.56	989.00
432.69	1008.00
432.82	1021.00
432.95	1030.00
433.08	981.00
433.21	981.00
433.35	978.00
433.48	995.00
433.61	940.00
433.74	993.00
433.87	978.00
434.00	1006.00
434.13	967.00
434.26	1031.00
434.39	1000.00
434.53	1006.00
434.66	973.00
434.79	985.00
434.92	978.00
435.05	1050.00
435.18	966.00
435.31	1021.00
435.44	1061.00
435.57	1002.00
435.70	988.00
435.84	971.00
435.97	1055.00
436.10	1081.00
436.23	979.00
436.36	963.00
436.49	979.00
436.62	1023.00
436.75	992.00
436.88	1033.00
437.01	970.00
437.14	967.00
437.28	960.00
437.41	989.00
437.54	1063.00
437.67	1032.00
437.80	983.00
437.93	959.00
438.06	1126.00
438.19	1048.00
438.32	997.00
438.45	994.00
438.58	1044.00
438.72	1091.00
438.85	1039.00
438.98	1016.00
439.11	1030.00
439.24	1102.00
439.37	1095.00
439.50	1058.00
439.63	1070.00
439.76	1004.00
439.89	988.00
440.02	990.00
440.15	1039.00
440.29	1089.00
440.42	1020.00
440.55	1023.00
440.68	1096.00
440.81	1146.00
440.94	1026.00
441.07	1025.00
441.20	1105.00
441.33	1055.00
441.46	1007.00
441.59	994.00
441.72	1036.00
441.85	1038.00
441.99	1066.00
442.12	1071.00
442.25	1128.00
442.38	1051.00
442.51	1022.00
442.64	983.00
442.77	1052.00
442.90	1018.00
443.03	989.00
443.16	1014.00
443.29	1040.00
443.42	1114.00
443.55	1015.00
443.68	1031.00
443.82	986.00
443.95	1013.00
444.08	1054.00
444.21	1036.00
444.34	1023.00
444.47	1042.00
444.60	1049.00
444.73	1058.00
444.86	1044.00
444.99	1141.00
445.12	1098.00
445.25	1054.00
445.38	1081.00
445.51	1091.00
445.64	1064.00
445.78	1055.00
445.91	994.00
446.04	1187.00
446.17	1102.00
446.30	1014.00
446.43	1067.00
446.56	1065.00
446.69	1030.00
446.82	1036.00
446.95	1123.00
447.08	1137.00
447.21	1081.00
447.34	1064.00
447.47	1105.00
447.60	1102.00
447.73	1084.00
447.86	1113.00
447.99	1114.00
448.13	1107.00
448.26	1110.00
448.39	1070.00
448.52	1111.00
448.65	1129.00
448.78	1084.00
448.91	1094.00
449.04	1107.00
449.17	1074.00
449.30	1116.00
449.43	1095.00
449.56	1085.00
449.69	1172.00
449.82	1122.00
449.95	1054.00
450.08	1146.00
450.21	1130.00
450.34	1095.00
450.47	1087.00
450.60	1136.00
450.73	1115.00
450.87	1100.00
451.00	1119.00
451.13	1142.00
451.26	1262.00
451.39	1106.00
451.52	1139.00
451.65	1109.00
451.78	1118.00
451.91	1091.00
452.04	1089.00
452.17	1211.00
452.30	1189.00
452.43	1091.00
452.56	1108.00
452.69	1181.00
452.82	1078.00
452.95	1162.00
453.08	1108.00
453.21	1084.00
453.34	1168.00
453.47	1127.00
453.60	1173.00
453.73	1236.00
453.86	1179.00
453.99	1145.00
454.12	1134.00
454.25	1132.00
454.38	1167.00
454.52	1147.00
454.65	1147.00
454.78	1159.00
454.91	1108.00
455.04	1131.00
455.17	1098.00
455.30	1124.00
455.43	1211.00
455.56	1145.00
455.69	1124.00
455.82	1161.00
455.95	1172.00
456.08	1125.00
456.21	1120.00
456.34	1113.00
456.47	1106.00
456.60	1154.00
456.73	1122.00
456.86	1161.00
456.99	1201.00
457.12	1141.00
457.25	1169.00
457.38	1247.00
457.51	1218.00
457.64	1227.00
457.77	1178.00
457.90	1179.00
458.03	1189.00
458.16	1161.00
458.29	1179.00
458.42	1192.00
458.55	1141.00
458.68	1182.00
458.81	1194.00
458.94	1238.00
459.07	1282.00
459.20	1157.00
459.33	1174.00
459.46	1259.00
459.59	1289.00
459.72	1277.00
459.85	1191.00
459.98	1261.00
460.11	1238.00
460.24	1230.00
460.37	1170.00
460.50	1253.00
460.63	1229.00
460.76	1207.00
460.89	1241.00
461.02	1260.00
461.15	1274.00
461.28	1250.00
461.41	1246.00
461.54	1319.00
461.67	1214.00
461.80	1242.00
461.93	1270.00
462.06	1286.00
462.19	1326.00
462.32	1243.00
462.45	1238.00
462.58	1288.00
462.71	1252.00
462.84	1257.00
462.97	1208.00
463.10	1271.00
463.23	1275.00
463.36	1295.00
463.49	1279.00
463.62	1226.00
463.75	1305.00
463.88	1276.00
464.01	1310.00
464.14	1255.00
464.27	1394.00
464.40	1305.00
464.53	1313.00
464.66	1322.00
464.79	1331.00
464.92	1326.00
465.05	1276.00
465.18	1280.00
465.31	1305.00
465.44	1323.00
465.57	1301.00
465.70	1301.00
465.83	1440.00
465.96	1335.00
466.09	1332.00
466.22	1383.00
466.35	1377.00
466.48	1309.00
466.61	1310.00
466.74	1326.00
466.87	1376.00
467.00	1383.00
467.13	1362.00
467.26	1363.00
467.39	1322.00
467.52	1309.00
467.65	1347.00
467.78	1431.00
467.91	1376.00
468.04	1385.00
468.17	1343.00
468.30	1386.00
468.43	1346.00
468.56	1369.00
468.69	1416.00
468.82	1450.00
468.95	1373.00
469.08	1375.00
469.21	1392.00
469.34	1444.00
469.47	1524.00
469.60	1495.00
469.73	1425.00
469.86	1461.00
469.99	1469.00
470.11	1404.00
470.24	1415.00
470.37	1476.00
470.50	1470.00
470.63	1423.00
470.76	1452.00
470.89	1526.00
471.02	1563.00
471.15	1446.00
471.28	1470.00
471.41	1562.00
471.54	1531.00
471.67	1474.00
471.80	1427.00
471.93	1554.00
472.06	1512.00
472.19	1502.00
472.32	1478.00
472.45	1621.00
472.58	1560.00
472.71	1523.00
472.84	1518.00
472.97	1513.00
473.10	1506.00
473.23	1591.00
473.36	1507.00
473.49	1613.00
473.62	1598.00
473.74	1570.00
473.87	1588.00
474.00	1565.00
474.13	1551.00
474.26	1606.00
474.39	1636.00
474.52	1586.00
474.65	1584.00
474.78	1599.00
474.91	1572.00
475.04	1642.00
475.17	1736.00
475.30	1628.00
475.43	1637.00
475.56	1649.00
475.69	1616.00
475.82	1667.00
475.95	1643.00
476.08	1712.00
476.21	1646.00
476.34	1700.00
476.46	1692.00
476.59	1739.00
476.72	1670.00
476.85	1665.00
476.98	1681.00
477.11	1751.00
477.24	1681.00
477.37	1646.00
477.50	1684.00
477.63	1713.00
477.76	1714.00
477.89	1673.00
478.02	1713.00
478.15	1735.00
478.28	1722.00
478.41	1777.00
478.54	1749.00
478.66	1836.00
478.79	1770.00
478.92	1770.00
479.05	1794.00
479.18	1774.00
479.31	1777.00
479.44	1778.00
479.57	1766.00
479.70	1796.00
479.83	1838.00
479.96	1813.00
480.09	1835.00
480.22	1978.00
480.35	1979.00
480.48	1900.00
480.60	1873.00
480.73	1830.00
480.86	1896.00
480.99	1866.00
481.12	1896.00
481.25	1891.00
481.38	1938.00
481.51	1882.00
481.64	1917.00
481.77	1945.00
481.90	1915.00
482.03	1916.00
482.16	1905.00
482.29	1995.00
482.41	1958.00
482.54	1978.00
482.67	1929.00
482.80	1942.00
482.93	1997.00
483.06	1939.00
483.19	2028.00
483.32	2014.00
483.45	2006.00
483.58	2005.00
483.71	2042.00
483.84	2074.00
483.97	2038.00
484.09	2033.00
484.22	2012.00
484.35	2011.00
484.48	1987.00
484.61	2041.00
484.74	2034.00
484.87	2058.00
485.00	2021.00
485.13	2090.00
485.26	2072.00
485.39	2106.00
485.52	2098.00
485.64	2159.00
485.77	2138.00
485.90	2196.00
486.03	2076.00
486.16	2158.00
486.29	2117.00
486.42	2147.00
486.55	2171.00
486.68	2150.00
486.81	2226.00
486.94	2202.00
487.06	2172.00
487.19	2174.00
487.32	2209.00
487.45	2174.00
487.58	2163.00
487.71	2170.00
487.84	2141.00
487.97	2237.00
488.10	2267.00
488.23	2193.00
488.35	2181.00
488.48	2199.00
488.61	2168.00
488.74	2227.00
488.87	2258.00
489.00	2271.00
489.13	2378.00
489.26	2332.00
489.39	2281.00
489.52	2321.00
489.64	2302.00
489.77	2299.00
489.90	2300.00
490.03	2280.00
490.16	2259.00
490.29	2284.00
490.42	2260.00
490.55	2341.00
490.68	2316.00
490.81	2306.00
490.93	2321.00
491.06	2392.00
491.19	2390.00
491.32	2382.00
491.45	2393.00
491.58	2326.00
491.71	2417.00
491.84	2340.00
491.97	2371.00
492.09	2471.00
492.22	2431.00
492.35	2400.00
492.48	2447.00
492.61	2438.00
492.74	2426.00
492.87	2474.00
493.00	2431.00
493.12	2396.00
493.25	2419.00
493.38	2402.00
493.51	2415.00
493.64	2411.00
493.77	2456.00
493.90	2488.00
494.03	2501.00
494.16	2561.00
494.28	2549.00
494.41	2475.00
494.54	2505.00
494.67	2594.00
494.80	2580.00
494.93	2532.00
495.06	2557.00
495.19	2578.00
495.31	2531.00
495.44	2494.00
495.57	2539.00
495.70	2600.00
495.83	2563.00
495.96	2515.00
496.09	2557.00
496.22	2660.00
496.34	2668.00
496.47	2530.00
496.60	2601.00
496.73	2636.00
496.86	2643.00
496.99	2584.00
497.12	2611.00
497.24	2584.00
497.37	2631.00
497.50	2610.00
497.63	2589.00
497.76	2618.00
497.89	2663.00
498.02	2671.00
498.15	2618.00
498.27	2653.00
498.40	2738.00
498.53	2750.00
498.66	2712.00
498.79	2722.00
498.92	2666.00
499.05	2702.00
499.17	2709.00
499.30	2714.00
499.43	2794.00
499.56	2772.00
499.69	2664.00
499.82	2749.00
499.95	2752.00
500.07	2729.00
500.20	2744.00
500.33	2759.00
500.46	2893.00
500.59	2757.00
500.72	2797.00
500.85	2837.00
500.97	2778.00
501.10	2838.00
501.23	2780.00
501.36	2774.00
501.49	2874.00
501.62	2844.00
501.75	2821.00
501.87	2839.00
502.00	2727.00
502.13	2822.00
502.26	2814.00
502.39	2785.00
502.52	2812.00
502.64	2784.00
502.77	2833.00
502.90	2900.00
503.03	2885.00
503.16	2866.00
503.29	2842.00
503.42	2877.00
503.54	2873.00
503.67	2933.00
503.80	2902.00
503.93	2957.00
504.06	2857.00
504.19	2919.00
504.31	2970.00
504.44	2949.00
504.57	2985.00
504.70	2979.00
504.83	2882.00
504.96	2977.00
505.08	2932.00
505.21	2977.00
505.34	3025.00
505.47	3024.00
505.60	3003.00
505.73	3039.00
505.85	3025.00
505.98	3100.00
506.11	3042.00
506.24	2989.00
506.37	3018.00
506.50	3041.00
506.62	3091.00
506.75	3026.00
506.88	2974.00
507.01	3057.00
507.14	3021.00
507.27	3033.00
507.39	2970.00
507.52	3036.00
507.65	3057.00
507.78	3058.00
507.91	3045.00
508.04	3138.00
508.16	3114.00
508.29	3095.00
508.42	3090.00
508.55	3073.00
508.68	3068.00
508.81	3112.00
508.93	3099.00
509.06	3105.00
509.19	3169.00
509.32	3198.00
509.45	3119.00
509.57	3167.00
509.70	3126.00
509.83	3202.00
509.96	3122.00
510.09	3166.00
510.22	3142.00
510.34	3169.00
510.47	3185.00
510.60	3278.00
510.73	3230.00
510.86	3254.00
510.98	3193.00
511.11	3184.00
511.24	3292.00
511.37	3278.00
511.50	3228.00
511.63	3229.00
511.75	3214.00
511.88	3220.00
512.01	3264.00
512.14	3256.00
512.27	3295.00
512.39	3309.00
512.52	3244.00
512.65	3290.00
512.78	3242.00
512.91	3256.00
513.03	3323.00
513.16	3357.00
513.29	3310.00
513.42	3306.00
513.55	3256.00
513.67	3335.00
513.80	3272.00
513.93	3274.00
514.06	3296.00
514.19	3368.00
514.31	3360.00
514.44	3381.00
514.57	3381.00
514.70	3404.00
514.83	3447.00
514.95	3338.00
515.08	3377.00
515.21	3413.00
515.34	3371.00
515.47	3411.00
515.59	3392.00
515.72	3427.00
515.85	3390.00
515.98	3484.00
516.11	3411.00
516.23	3512.00
516.36	3500.00
516.49	3480.00
516.62	3477.00
516.75	3520.00
516.87	3527.00
517.00	3454.00
517.13	3492.00
517.26	3539.00
517.39	3497.00
517.51	3412.00
517.64	3502.00
517.77	3537.00
517.90	3478.00
518.02	3522.00
518.15	3481.00
518.28	3415.00
518.41	3490.00
518.54	3499.00
518.66	3559.00
518.79	3524.00
518.92	3513.00
519.05	3545.00
519.18	3567.00
519.30	3600.00
519.43	3511.00
519.56	3530.00
519.69	3589.00
519.81	3664.00
519.94	3538.00
520.07	3508.00
520.20	3598.00
520.33	3647.00
520.45	3712.00
520.58	3633.00
520.71	3646.00
520.84	3656.00
520.96	3622.00
521.09	3665.00
521.22	3584.00
521.35	3686.00
521.48	3714.00
521.60	3668.00
521.73	3643.00
521.86	3745.00
521.99	3739.00
522.11	3690.00
522.24	3686.00
522.37	3722.00
522.50	3712.00
522.62	3755.00
522.75	3616.00
522.88	3686.00
523.01	3682.00
523.14	3729.00
523.26	3724.00
523.39	3762.00
523.52	3702.00
523.65	3769.00
523.77	3790.00
523.90	3756.00
524.03	3699.00
524.16	3664.00
524.28	3728.00
524.41	3688.00
524.54	3760.00
524.67	3704.00
524.79	3761.00
524.92	3832.00
525.05	3830.00
525.18	3768.00
525.31	3847.00
525.43	3730.00
525.56	3898.00
525.69	3813.00
525.82	3721.00
525.94	3839.00
526.07	3846.00
526.20	3881.00
526.33	3846.00
526.45	3983.00
526.58	3887.00
526.71	3846.00
526.84	3801.00
526.96	3865.00
527.09	3838.00
527.22	3809.00
527.35	3869.00
527.47	3801.00
527.60	3911.00
527.73	3799.00
527.86	3877.00
527.98	3929.00
528.11	3911.00
528.24	3862.00
528.37	3873.00
528.49	3818.00
528.62	3880.00
528.75	3926.00
528.88	3894.00
529.00	3964.00
529.13	3949.00
529.26	3928.00
529.39	3947.00
529.51	4076.00
529.64	3991.00
529.77	3899.00
529.90	3892.00
530.02	3927.00
530.15	3890.00
530.28	3867.00
530.40	3924.00
530.53	3942.00
530.66	3925.00
530.79	3942.00
530.91	3938.00
531.04	3923.00
531.17	3969.00
531.30	4015.00
531.42	3993.00
531.55	4003.00
531.68	4044.00
531.81	3958.00
531.93	3966.00
532.06	4001.00
532.19	3956.00
532.31	4058.00
532.44	4027.00
532.57	4066.00
532.70	3989.00
532.82	4070.00
532.95	4064.00
533.08	4114.00
533.21	4075.00
533.33	4020.00
533.46	4074.00
533.59	4014.00
533.71	4144.00
533.84	4049.00
533.97	4044.00
534.10	4007.00
534.22	4050.00
534.35	4068.00
534.48	4069.00
534.61	4133.00
534.73	4053.00
534.86	4054.00
534.99	4146.00
535.11	4164.00
535.24	4092.00
535.37	4063.00
535.50	4029.00
535.62	4081.00
535.75	4147.00
535.88	4123.00
536.00	4077.00
536.13	4102.00
536.26	4138.00
536.39	4186.00
536.51	4101.00
536.64	4191.00
536.77	4139.00
536.89	4142.00
537.02	4232.00
537.15	4229.00
537.28	4146.00
537.40	4218.00
537.53	4197.00
537.66	4218.00
537.78	4203.00
537.91	4157.00
538.04	4216.00
538.17	4226.00
538.29	4200.00
538.42	4318.00
538.55	4292.00
538.67	4273.00
538.80	4225.00
538.93	4282.00
539.05	4260.00
539.18	4310.00
539.31	4305.00
539.44	4277.00
539.56	4214.00
539.69	4291.00
539.82	4270.00
539.94	4256.00
540.07	4249.00
540.20	4346.00
540.32	4276.00
540.45	4290.00
540.58	4306.00
540.71	4376.00
540.83	4254.00
540.96	4296.00
541.09	4337.00
541.21	4391.00
541.34	4341.00
541.47	4321.00
541.59	4370.00
541.72	4386.00
541.85	4492.00
541.98	4423.00
542.10	4409.00
542.23	4376.00
542.36	4497.00
542.48	4379.00
542.61	4364.00
542.74	4348.00
542.86	4396.00
542.99	4381.00
543.12	4380.00
543.24	4473.00
543.37	4343.00
543.50	4401.00
543.62	4433.00
543.75	4425.00
543.88	4385.00
544.01	4412.00
544.13	4443.00
544.26	4446.00
544.39	4405.00
544.51	4471.00
544.64	4397.00
544.77	4449.00
544.89	4436.00
545.02	4474.00
545.15	4473.00
545.27	4542.00
545.40	4533.00
545.53	4492.00
545.65	4504.00
545.78	4449.00
545.91	4461.00
546.03	4423.00
546.16	4481.00
546.29	4466.00
546.41	4454.00
546.54	4506.00
546.67	4490.00
546.79	4558.00
546.92	4588.00
547.05	4520.00
547.17	4525.00
547.30	4518.00
547.43	4552.00
547.56	4498.00
547.68	4551.00
547.81	4536.00
547.94	4560.00
548.06	4611.00
548.19	4544.00
548.32	4625.00
548.44	4528.00
548.57	4563.00
548.70	4596.00
548.82	4610.00
548.95	4561.00
549.08	4627.00
549.20	4573.00
549.33	4675.00
549.45	4588.00
549.58	4569.00
549.71	4550.00
549.83	4695.00
549.96	4571.00
550.09	4621.00
550.21	4608.00
550.34	4624.00
550.47	4607.00
550.59	4575.00
550.72	4552.00
550.85	4660.00
550.97	4707.00
551.10	4642.00
551.23	4644.00
551.35	4768.00
551.48	4697.00
551.61	4640.00
551.73	4649.00
551.86	4767.00
551.99	4761.00
552.11	4692.00
552.24	4657.00
552.37	4678.00
552.49	4688.00
552.62	4696.00
552.75	4734.00
552.87	4678.00
553.00	4714.00
553.12	4697.00
553.25	4688.00
553.38	4774.00
553.50	4822.00
553.63	4795.00
553.76	4717.00
