Wavelength (nm)	Intensity
377.35	820.17
377.48	593.00
377.62	613.33
377.75	614.33
377.88	806.67
378.02	792.00
378.15	804.00
378.28	771.00
378.41	850.83
378.55	810.83
378.68	797.50
378.81	777.33
378.95	805.83
379.08	800.00
379.21	762.00
379.35	822.33
379.48	818.33
379.61	880.83
379.74	821.67
379.88	806.50
380.01	880.83
380.14	935.00
380.28	873.83
380.41	800.83
380.54	842.17
380.68	849.67
380.81	777.67
380.94	864.00
381.07	894.67
381.21	894.67
381.34	827.17
381.47	770.17
381.61	958.67
381.74	834.67
381.87	789.00
382.00	850.33
382.14	920.17
382.27	874.00
382.40	803.83
382.54	897.00
382.67	895.67
382.80	799.00
382.93	810.00
383.07	830.33
383.20	833.83
383.33	867.33
383.47	809.50
383.60	790.00
383.73	971.17
383.86	860.50
384.00	827.00
384.13	816.50
384.26	864.67
384.40	882.17
384.53	840.17
384.66	884.67
384.79	853.17
384.93	817.00
385.06	827.50
385.19	853.17
385.33	944.17
385.46	867.50
385.59	813.83
385.72	849.50
385.86	796.50
385.99	815.83
386.12	833.00
386.25	806.83
386.39	878.50
386.52	891.67
386.65	832.67
386.79	827.33
386.92	817.83
387.05	912.67
387.18	792.67
387.32	807.33
387.45	871.67
387.58	847.50
387.71	829.17
387.85	823.83
387.98	848.83
388.11	872.00
388.25	854.67
388.38	840.83
388.51	871.67
388.64	886.00
388.78	827.33
388.91	803.17
389.04	840.83
389.17	942.50
389.31	850.00
389.44	882.83
389.57	902.33
389.70	870.50
389.84	830.00
389.97	832.33
390.10	826.33
390.24	863.50
390.37	839.67
390.50	824.33
390.63	907.83
390.77	845.17
390.90	852.33
391.03	843.67
391.16	799.17
391.30	828.50
391.43	837.00
391.56	833.50
391.69	818.17
391.83	887.67
391.96	862.67
392.09	838.33
392.22	932.50
392.36	868.00
392.49	820.67
392.62	843.17
392.75	869.17
392.89	908.50
393.02	817.17
393.15	827.00
393.28	801.67
393.42	938.67
393.55	808.00
393.68	837.17
393.81	784.83
393.95	834.17
394.08	833.83
394.21	834.50
394.34	894.67
394.48	884.67
394.61	893.00
394.74	872.00
394.87	902.33
395.01	869.00
395.14	884.67
395.27	834.00
395.40	941.00
395.54	946.50
395.67	865.83
395.80	850.50
395.93	881.33
396.07	831.83
396.20	831.50
396.33	787.17
396.46	841.67
396.59	853.00
396.73	853.83
396.86	830.17
396.99	909.33
397.12	878.83
397.26	876.17
397.39	859.50
397.52	1137.17
397.65	962.00
397.79	860.00
397.92	849.00
398.05	915.83
398.18	846.17
398.32	854.67
398.45	883.83
398.58	878.67
398.71	891.67
398.84	831.83
398.98	862.00
399.11	892.17
399.24	886.00
399.37	851.17
399.51	831.33
399.64	866.17
399.77	863.17
399.90	866.17
400.03	870.83
400.17	828.67
400.30	923.00
400.43	891.83
400.56	869.17
400.70	870.33
400.83	845.83
400.96	839.33
401.09	878.33
401.23	871.17
401.36	934.67
401.49	854.33
401.62	873.50
401.75	863.67
401.89	837.83
402.02	860.50
402.15	868.00
402.28	892.50
402.41	894.00
402.55	855.00
402.68	867.17
402.81	936.00
402.94	913.33
403.08	850.17
403.21	839.83
403.34	905.33
403.47	903.83
403.60	863.00
403.74	899.50
403.87	907.50
404.00	857.50
404.13	856.83
404.26	833.83
404.40	845.17
404.53	887.00
404.66	866.33
404.79	849.17
404.93	919.00
405.06	863.83
405.19	825.83
405.32	890.17
405.45	898.83
405.59	921.33
405.72	882.00
405.85	851.17
405.98	1045.83
406.11	855.33
406.25	853.50
406.38	872.17
406.51	907.67
406.64	878.33
406.77	836.17
406.91	840.00
407.04	898.00
407.17	869.50
407.30	900.50
407.43	881.00
407.57	954.83
407.70	935.67
407.83	861.00
407.96	886.00
408.09	843.67
408.23	969.17
408.36	884.83
408.49	879.17
408.62	1001.33
408.75	900.33
408.89	867.00
409.02	900.67
409.15	895.50
409.28	966.50
409.41	920.67
409.55	876.67
409.68	1001.83
409.81	902.17
409.94	869.67
410.07	902.83
410.20	908.83
410.34	888.00
410.47	899.50
410.60	903.17
410.73	927.83
410.86	871.83
411.00	895.00
411.13	869.33
411.26	896.83
411.39	899.50
411.52	914.17
411.66	894.17
411.79	890.67
411.92	869.83
412.05	888.00
412.18	888.33
412.31	919.50
412.45	931.33
412.58	936.17
412.71	866.50
412.84	925.50
412.97	977.33
413.11	904.50
413.24	908.67
413.37	944.50
413.50	1009.00
413.63	918.50
413.76	896.00
413.90	932.67
414.03	893.50
414.16	894.83
414.29	924.00
414.42	910.67
414.56	1014.17
414.69	893.50
414.82	904.17
414.95	907.17
415.08	922.50
415.21	909.00
415.35	929.83
415.48	840.00
415.61	954.33
415.74	962.17
415.87	867.83
416.00	913.17
416.14	1021.00
416.27	924.83
416.40	884.67
416.53	915.67
416.66	944.50
416.79	927.17
416.93	885.67
417.06	972.17
417.19	916.33
417.32	904.50
417.45	904.00
417.58	878.33
417.72	965.67
417.85	902.50
417.98	914.33
418.11	958.50
418.24	902.00
418.37	904.00
418.51	914.33
418.64	918.83
418.77	989.67
418.90	937.17
419.03	884.17
419.16	942.00
419.29	966.83
419.43	896.17
419.56	881.17
419.69	1028.17
419.82	979.00
419.95	921.83
420.08	965.83
420.22	992.83
420.35	1049.83
420.48	973.17
420.61	923.17
420.74	878.00
420.87	967.17
421.00	882.83
421.14	918.17
421.27	962.00
421.40	1000.50
421.53	951.50
421.66	930.67
421.79	925.17
421.93	934.67
422.06	931.83
422.19	907.33
422.32	969.83
422.45	974.33
422.58	943.17
422.71	929.17
422.85	989.67
422.98	979.50
423.11	886.50
423.24	887.00
423.37	910.50
423.50	914.83
423.63	937.83
423.77	917.50
423.90	911.50
424.03	959.00
424.16	971.00
424.29	937.67
424.42	896.33
424.55	916.50
424.69	912.67
424.82	949.33
424.95	951.33
425.08	916.17
425.21	965.17
425.34	928.50
425.47	944.00
425.60	959.17
425.74	904.67
425.87	934.83
426.00	945.33
426.13	965.17
426.26	924.17
426.39	933.00
426.52	950.67
426.66	1020.17
426.79	974.67
426.92	922.83
427.05	1061.00
427.18	1025.67
427.31	957.83
427.44	952.83
427.57	922.00
427.71	948.33
427.84	915.33
427.97	956.00
428.10	1016.33
428.23	961.33
428.36	938.67
428.49	877.33
428.62	1084.50
428.76	1048.83
428.89	969.33
429.02	917.50
429.15	958.67
429.28	1047.67
429.41	949.33
429.54	969.83
429.67	951.00
429.81	990.33
429.94	965.00
430.07	947.67
430.20	1006.50
430.33	1033.00
430.46	936.67
430.59	937.00
430.72	974.50
430.85	924.33
430.99	971.67
431.12	936.00
431.25	1020.00
431.38	1050.67
431.51	978.83
431.64	970.83
431.77	1053.17
431.90	1050.17
432.03	982.17
432.17	949.00
432.30	988.67
432.43	998.33
432.56	976.33
432.69	1002.17
432.82	1002.33
432.95	1044.83
433.08	984.00
433.21	990.33
433.35	981.50
433.48	987.67
433.61	946.50
433.74	990.17
433.87	961.33
434.00	1014.00
434.13	960.50
434.26	1016.83
434.39	1005.17
434.53	1010.17
434.66	982.50
434.79	984.00
434.92	982.17
435.05	1060.67
435.18	979.33
435.31	1021.50
435.44	1061.83
435.57	1002.50
435.70	991.17
435.84	963.17
435.97	1059.33
436.10	1093.00
436.23	984.83
436.36	971.00
436.49	987.33
436.62	1019.50
436.75	993.50
436.88	1027.83
437.01	981.17
437.14	968.33
437.28	958.67
437.41	981.67
437.54	1058.83
437.67	1035.00
437.80	980.67
437.93	958.67
438.06	1118.83
438.19	1048.33
438.32	980.17
438.45	984.50
438.58	1037.67
438.72	1080.17
438.85	1050.67
438.98	1015.33
439.11	1028.67
439.24	1083.83
439.37	1072.00
439.50	1045.17
439.63	1070.67
439.76	1000.67
439.89	992.50
440.02	1003.67
440.15	1051.17
440.29	1090.17
440.42	1022.00
440.55	1019.33
440.68	1099.00
440.81	1143.67
440.94	1033.83
441.07	1030.17
441.20	1117.00
441.33	1052.67
441.46	1012.50
441.59	1008.17
441.72	1038.17
441.85	1034.33
441.99	1067.33
442.12	1062.00
442.25	1127.33
442.38	1062.33
442.51	1050.83
442.64	997.67
442.77	1043.50
442.90	1011.83
443.03	999.33
443.16	1026.17
443.29	1053.50
443.42	1110.83
443.55	1024.00
443.68	1049.67
443.82	1004.67
443.95	1025.50
444.08	1030.83
444.21	1041.50
444.34	1028.67
444.47	1039.33
444.60	1048.33
444.73	1067.00
444.86	1053.00
444.99	1122.50
445.12	1087.00
445.25	1066.67
445.38	1075.00
445.51	1110.67
445.64	1065.33
445.78	1040.83
445.91	1001.33
446.04	1175.17
446.17	1115.17
446.30	1016.67
446.43	1081.67
446.56	1076.67
446.69	1038.17
446.82	1054.50
446.95	1118.33
447.08	1124.83
447.21	1086.50
447.34	1055.83
447.47	1117.83
447.60	1111.17
447.73	1075.33
447.86	1113.00
447.99	1088.67
448.13	1095.50
448.26	1112.17
448.39	1073.67
448.52	1114.00
448.65	1130.00
448.78	1089.67
448.91	1089.17
449.04	1113.00
449.17	1073.33
449.30	1114.67
449.43	1104.50
449.56	1104.83
449.69	1163.17
449.82	1104.50
449.95	1051.00
450.08	1159.33
450.21	1133.83
450.34	1105.00
450.47	1091.83
450.60	1139.67
450.73	1112.67
450.87	1101.33
451.00	1113.50
451.13	1138.50
451.26	1255.00
451.39	1094.67
451.52	1135.67
451.65	1108.67
451.78	1103.17
451.91	1095.67
452.04	1095.83
452.17	1205.83
452.30	1197.67
452.43	1103.17
452.56	1113.50
452.69	1185.33
452.82	1092.83
452.95	1160.50
453.08	1097.00
453.21	1065.50
453.34	1177.33
453.47	1118.33
453.60	1183.17
453.73	1232.33
453.86	1169.67
453.99	1153.17
454.12	1150.33
454.25	1137.00
454.38	1164.17
454.52	1122.67
454.65	1134.17
454.78	1137.17
454.91	1093.83
455.04	1143.17
455.17	1126.50
455.30	1126.67
455.43	1214.67
455.56	1143.17
455.69	1130.67
455.82	1169.33
455.95	1181.17
456.08	1122.17
456.21	1129.33
456.34	1111.67
456.47	1109.33
456.60	1146.83
456.73	1140.83
456.86	1158.17
456.99	1202.50
457.12	1146.17
457.25	1159.83
457.38	1225.67
457.51	1209.83
457.64	1200.33
457.77	1176.83
457.90	1185.17
458.03	1177.17
458.16	1183.83
458.29	1189.50
458.42	1187.67
458.55	1146.33
458.68	1177.17
458.81	1188.83
458.94	1249.83
459.07	1300.00
459.20	1169.33
459.33	1177.33
459.46	1266.50
459.59	1303.00
459.72	1271.33
459.85	1207.00
459.98	1285.50
460.11	1249.67
460.24	1220.00
460.37	1176.00
460.50	1255.83
460.63	1237.67
460.76	1217.50
460.89	1232.00
461.02	1251.83
461.15	1270.50
461.28	1232.17
461.41	1233.17
461.54	1314.50
461.67	1218.17
461.80	1254.83
461.93	1288.67
462.06	1289.83
462.19	1319.33
462.32	1239.17
462.45	1232.67
462.58	1295.33
462.71	1254.17
462.84	1258.67
462.97	1198.17
463.10	1254.83
463.23	1278.83
463.36	1298.17
463.49	1279.33
463.62	1229.50
463.75	1300.67
463.88	1271.50
464.01	1292.00
464.14	1247.00
464.27	1376.50
464.40	1283.17
464.53	1291.50
464.66	1325.33
464.79	1308.17
464.92	1320.50
465.05	1280.33
465.18	1308.50
465.31	1312.17
465.44	1302.83
465.57	1301.50
465.70	1293.17
465.83	1432.33
465.96	1340.83
466.09	1322.50
466.22	1377.00
466.35	1363.67
466.48	1313.50
466.61	1320.00
466.74	1336.83
466.87	1377.17
467.00	1371.00
467.13	1374.00
467.26	1383.00
467.39	1314.67
467.52	1317.50
467.65	1353.17
467.78	1422.33
467.91	1370.00
468.04	1386.00
468.17	1357.17
468.30	1368.00
468.43	1337.17
468.56	1369.17
468.69	1413.17
468.82	1431.50
468.95	1362.67
469.08	1381.33
469.21	1400.17
469.34	1439.67
469.47	1518.67
469.60	1500.17
469.73	1426.17
469.86	1449.67
469.99	1471.67
470.11	1399.00
470.24	1424.00
470.37	1474.17
470.50	1441.33
470.63	1421.17
470.76	1454.33
470.89	1508.83
471.02	1561.83
471.15	1449.33
471.28	1466.67
471.41	1573.50
471.54	1511.83
471.67	1480.33
471.80	1441.33
471.93	1543.67
472.06	1515.17
472.19	1495.83
472.32	1481.33
472.45	1625.33
472.58	1571.00
472.71	1537.00
472.84	1511.83
472.97	1497.17
473.10	1489.67
473.23	1580.67
473.36	1505.50
473.49	1614.67
473.62	1601.83
473.74	1582.83
473.87	1587.50
474.00	1539.83
474.13	1557.33
474.26	1599.00
474.39	1628.33
474.52	1588.17
474.65	1602.17
474.78	1614.50
474.91	1567.83
475.04	1635.50
475.17	1738.17
475.30	1648.17
475.43	1646.67
475.56	1677.50
475.69	1628.00
475.82	1677.50
475.95	1621.00
476.08	1719.50
476.21	1657.67
476.34	1706.17
476.46	1702.50
476.59	1754.50
476.72	1681.17
476.85	1684.00
476.98	1664.17
477.11	1756.00
477.24	1705.67
477.37	1663.50
477.50	1702.83
477.63	1723.83
477.76	1707.83
477.89	1674.17
478.02	1692.00
478.15	1735.83
478.28	1737.00
478.41	1772.67
478.54	1743.50
478.66	1819.33
478.79	1758.67
478.92	1770.33
479.05	1795.17
479.18	1788.33
479.31	1782.33
479.44	1796.50
479.57	1781.83
479.70	1801.83
479.83	1834.83
479.96	1817.83
480.09	1857.00
480.22	1973.67
480.35	1960.67
480.48	1893.33
480.60	1876.00
480.73	1851.50
480.86	1906.17
480.99	1880.33
481.12	1877.83
481.25	1888.67
481.38	1958.33
481.51	1885.33
481.64	1913.00
481.77	1954.33
481.90	1912.50
482.03	1921.33
482.16	1919.33
482.29	1997.67
482.41	1956.00
482.54	1980.00
482.67	1935.00
482.80	1954.17
482.93	2017.00
483.06	1949.00
483.19	2036.33
483.32	2019.00
483.45	2006.50
483.58	2018.83
483.71	2038.17
483.84	2071.83
483.97	2038.00
484.09	2035.50
484.22	2022.50
484.35	2011.83
484.48	1995.67
484.61	2040.17
484.74	2053.17
484.87	2090.67
485.00	2043.33
485.13	2093.17
485.26	2053.67
485.39	2116.50
485.52	2103.17
485.64	2181.00
485.77	2142.33
485.90	2174.17
486.03	2081.67
486.16	2139.50
486.29	2094.83
486.42	2141.00
486.55	2168.00
486.68	2148.17
486.81	2189.83
486.94	2171.00
487.06	2152.50
487.19	2193.33
487.32	2209.00
487.45	2191.00
487.58	2176.83
487.71	2199.33
487.84	2159.67
487.97	2240.50
488.10	2252.33
488.23	2212.67
488.35	2182.67
488.48	2214.67
488.61	2193.50
488.74	2237.83
488.87	2236.00
489.00	2262.00
489.13	2362.67
489.26	2307.50
489.39	2306.33
489.52	2312.17
489.64	2315.00
489.77	2312.50
489.90	2300.33
490.03	2308.67
490.16	2287.00
490.29	2292.67
490.42	2295.33
490.55	2338.17
490.68	2302.50
490.81	2315.50
490.93	2297.00
491.06	2405.83
491.19	2374.67
491.32	2369.33
491.45	2399.17
491.58	2329.00
491.71	2391.00
491.84	2370.33
491.97	2368.83
492.09	2463.83
492.22	2423.17
492.35	2422.67
492.48	2452.83
492.61	2428.50
492.74	2418.33
492.87	2445.17
493.00	2425.50
493.12	2399.67
493.25	2457.17
493.38	2428.67
493.51	2419.83
493.64	2424.67
493.77	2462.67
493.90	2508.67
494.03	2504.33
494.16	2546.50
494.28	2549.67
494.41	2494.17
494.54	2510.17
494.67	2621.67
494.80	2589.67
494.93	2517.00
495.06	2553.33
495.19	2559.17
495.31	2528.17
495.44	2521.17
495.57	2526.00
495.70	2569.83
495.83	2550.00
495.96	2528.33
496.09	2579.67
496.22	2635.33
496.34	2671.00
496.47	2565.33
496.60	2602.67
496.73	2633.83
496.86	2628.17
496.99	2587.83
497.12	2613.50
497.24	2578.50
497.37	2625.17
497.50	2608.17
497.63	2611.00
497.76	2639.67
497.89	2717.33
498.02	2675.67
498.15	2596.00
498.27	2671.17
498.40	2708.67
498.53	2739.67
498.66	2708.50
498.79	2724.83
498.92	2669.50
499.05	2710.17
499.17	2714.83
499.30	2753.17
499.43	2794.33
499.56	2747.67
499.69	2672.17
499.82	2742.50
499.95	2720.33
500.07	2725.17
500.20	2756.50
500.33	2774.67
500.46	2883.33
500.59	2781.00
500.72	2791.33
500.85	2838.50
500.97	2818.17
501.10	2832.33
501.23	2772.67
501.36	2790.50
501.49	2861.83
501.62	2837.67
501.75	2819.83
501.87	2872.17
502.00	2781.33
502.13	2849.50
502.26	2846.33
502.39	2823.50
502.52	2828.83
502.64	2779.67
502.77	2834.67
502.90	2898.83
503.03	2873.83
503.16	2855.17
503.29	2843.00
503.42	2944.33
503.54	2897.17
503.67	2909.50
503.80	2906.33
503.93	2964.00
504.06	2872.33
504.19	2922.33
504.31	2980.17
504.44	2954.33
504.57	2949.00
504.70	2953.83
504.83	2895.50
504.96	2972.67
505.08	2956.17
505.21	2973.17
505.34	3049.67
505.47	3026.50
505.60	3007.83
505.73	3043.50
505.85	3033.50
505.98	3133.17
506.11	3009.83
506.24	2971.67
506.37	2995.67
506.50	3025.33
506.62	3063.00
506.75	3025.50
506.88	2996.50
507.01	3046.50
507.14	3009.50
507.27	3040.17
507.39	2999.00
507.52	3056.33
507.65	3046.50
507.78	3084.50
507.91	3038.83
508.04	3135.67
508.16	3118.17
508.29	3111.67
508.42	3096.83
508.55	3079.00
508.68	3087.00
508.81	3168.33
508.93	3107.67
509.06	3121.67
509.19	3162.83
509.32	3178.00
509.45	3146.67
509.57	3158.50
509.70	3126.50
509.83	3163.17
509.96	3125.33
510.09	3164.00
510.22	3160.50
510.34	3196.67
510.47	3166.00
510.60	3279.33
510.73	3226.67
510.86	3246.33
510.98	3200.67
511.11	3186.00
511.24	3280.83
511.37	3253.83
511.50	3213.67
511.63	3236.67
511.75	3240.33
511.88	3244.17
512.01	3269.67
512.14	3249.17
512.27	3284.50
512.39	3270.17
512.52	3251.83
512.65	3291.17
512.78	3250.67
512.91	3275.67
513.03	3308.83
513.16	3348.33
513.29	3326.67
513.42	3298.17
513.55	3258.83
513.67	3337.33
513.80	3271.33
513.93	3294.33
514.06	3323.83
514.19	3363.33
514.31	3369.33
514.44	3391.50
514.57	3362.83
514.70	3378.83
514.83	3419.17
514.95	3356.50
515.08	3395.00
515.21	3425.17
515.34	3409.00
515.47	3391.50
515.59	3381.17
515.72	3428.83
515.85	3433.50
515.98	3477.67
516.11	3416.17
516.23	3474.33
516.36	3500.50
516.49	3482.50
516.62	3447.33
516.75	3516.33
516.87	3529.00
517.00	3435.67
517.13	3496.33
517.26	3540.83
517.39	3500.00
517.51	3431.17
517.64	3493.00
517.77	3564.50
517.90	3467.50
518.02	3498.33
518.15	3487.67
518.28	3438.67
518.41	3501.17
518.54	3539.00
518.66	3535.50
518.79	3495.50
518.92	3518.83
519.05	3521.33
519.18	3527.33
519.30	3596.83
519.43	3524.67
519.56	3533.17
519.69	3570.00
519.81	3609.50
519.94	3556.17
520.07	3515.50
520.20	3581.00
520.33	3617.83
520.45	3648.67
520.58	3612.83
520.71	3635.33
520.84	3664.50
520.96	3647.50
521.09	3618.00
521.22	3597.67
521.35	3669.50
521.48	3684.33
521.60	3631.00
521.73	3652.17
521.86	3726.17
521.99	3745.83
522.11	3665.67
522.24	3666.83
522.37	3706.67
522.50	3681.50
522.62	3734.67
522.75	3615.17
522.88	3700.33
523.01	3687.83
523.14	3720.00
523.26	3716.00
523.39	3788.33
523.52	3681.83
523.65	3794.33
523.77	3748.67
523.90	3750.50
524.03	3720.33
524.16	3711.33
524.28	3718.67
524.41	3707.17
524.54	3736.33
524.67	3710.83
524.79	3742.83
524.92	3788.50
525.05	3826.00
525.18	3755.33
525.31	3809.33
525.43	3750.33
525.56	3900.83
525.69	3801.83
525.82	3729.83
525.94	3848.83
526.07	3838.83
526.20	3840.50
526.33	3843.83
526.45	3946.50
526.58	3900.17
526.71	3840.17
526.84	3817.50
526.96	3853.67
527.09	3804.67
527.22	3834.67
527.35	3832.33
527.47	3817.00
527.60	3912.17
527.73	3829.00
527.86	3902.83
527.98	3896.17
528.11	3895.83
528.24	3851.17
528.37	3894.17
528.49	3851.17
528.62	3889.17
528.75	3925.83
528.88	3870.00
529.00	3931.67
529.13	3944.50
529.26	3915.00
529.39	3945.83
529.51	4057.33
529.64	4003.50
529.77	3922.17
529.90	3905.33
530.02	3922.17
530.15	3919.83
530.28	3877.50
530.40	3921.33
530.53	3955.00
530.66	3957.83
530.79	3958.00
530.91	3970.67
531.04	3941.00
531.17	3958.17
531.30	3967.00
531.42	3987.67
531.55	3987.67
531.68	4044.17
531.81	3982.67
531.93	3978.17
532.06	4013.50
532.19	3977.00
532.31	4017.17
532.44	4013.83
532.57	4062.83
532.70	4017.50
532.82	4040.83
532.95	4055.50
533.08	4112.17
533.21	4071.50
533.33	4036.00
533.46	4041.50
533.59	4049.00
533.71	4172.17
533.84	4091.17
533.97	4062.17
534.10	4045.67
534.22	4070.33
534.35	4086.17
534.48	4073.50
534.61	4132.50
534.73	4038.67
534.86	4062.00
534.99	4125.67
535.11	4191.83
535.24	4119.17
535.37	4091.83
535.50	4082.67
535.62	4123.83
535.75	4181.67
535.88	4118.83
536.00	4123.17
536.13	4111.00
536.26	4142.50
536.39	4147.17
536.51	4106.83
536.64	4191.83
536.77	4158.17
536.89	4172.00
537.02	4197.67
537.15	4210.17
537.28	4172.17
537.40	4207.33
537.53	4182.50
537.66	4251.33
537.78	4232.50
537.91	4189.50
538.04	4200.00
538.17	4266.50
538.29	4239.83
538.42	4317.83
538.55	4276.00
538.67	4260.50
538.80	4225.67
538.93	4266.50
539.05	4272.67
539.18	4342.83
539.31	4307.33
539.44	4289.00
539.56	4210.83
539.69	4268.67
539.82	4250.50
539.94	4222.17
540.07	4265.83
540.20	4356.17
540.32	4271.17
540.45	4304.67
540.58	4311.00
540.71	4354.33
540.83	4259.50
540.96	4302.33
541.09	4317.17
541.21	4410.00
541.34	4388.50
541.47	4317.50
541.59	4348.17
541.72	4419.17
541.85	4496.17
541.98	4419.67
542.10	4359.50
542.23	4362.83
542.36	4464.17
542.48	4369.83
542.61	4348.83
542.74	4340.33
542.86	4378.67
542.99	4382.17
543.12	4383.67
543.24	4426.83
543.37	4365.00
543.50	4395.83
543.62	4393.00
543.75	4420.17
543.88	4403.00
544.01	4427.83
544.13	4450.67
544.26	4466.67
544.39	4400.50
544.51	4440.33
544.64	4413.67
544.77	4460.83
544.89	4423.33
545.02	4456.83
545.15	4457.50
545.27	4538.67
545.40	4532.83
545.53	4500.67
545.65	4486.00
545.78	4424.33
545.91	4451.83
546.03	4454.33
546.16	4497.33
546.29	4479.50
546.41	4460.17
546.54	4494.83
546.67	4486.50
546.79	4551.67
546.92	4571.00
547.05	4478.17
547.17	4512.67
547.30	4513.67
547.43	4551.50
547.56	4509.50
547.68	4545.67
547.81	4506.50
547.94	4540.00
548.06	4562.00
548.19	4535.83
548.32	4601.50
548.44	4546.83
548.57	4582.17
548.70	4611.67
548.82	4597.83
548.95	4580.00
549.08	4611.50
549.20	4588.00
549.33	4644.00
549.45	4591.83
549.58	4576.17
549.71	4520.83
549.83	4657.33
549.96	4563.33
550.09	4614.33
550.21	4590.67
550.34	4642.17
550.47	4592.00
550.59	4642.83
550.72	4555.33
550.85	4639.33
550.97	4705.83
551.10	4617.33
551.23	4636.33
551.35	4741.33
551.48	4697.83
551.61	4642.17
551.73	4650.17
551.86	4750.83
551.99	4737.50
552.11	4691.67
552.24	4701.00
552.37	4705.83
552.49	4689.00
552.62	4694.50
552.75	4726.17
552.87	4691.50
553.00	4694.67
553.12	4727.83
553.25	4705.50
553.38	4757.67
553.50	4780.17
553.63	4750.67
