Wavelength (nm)	Intensity
377.35	818.00
377.48	590.00
377.62	594.00
377.75	614.00
377.88	840.00
378.02	837.00
378.15	818.00
378.28	795.00
378.41	877.00
378.55	864.00
378.68	826.00
378.81	804.00
378.95	850.00
379.08	845.00
379.21	795.00
379.35	863.00
379.48	866.00
379.61	916.00
379.74	838.00
379.88	814.00
380.01	914.00
380.14	988.00
380.28	891.00
380.41	819.00
380.54	876.00
380.68	889.00
380.81	800.00
380.94	887.00
381.07	935.00
381.21	941.00
381.34	843.00
381.47	786.00
381.61	1016.00
381.74	857.00
381.87	817.00
382.00	885.00
382.14	971.00
382.27	902.00
382.40	842.00
382.54	914.00
382.67	930.00
382.80	813.00
382.93	835.00
383.07	862.00
383.20	872.00
383.33	902.00
383.47	829.00
383.60	794.00
383.73	1022.00
383.86	890.00
384.00	863.00
384.13	848.00
384.26	892.00
384.40	906.00
384.53	841.00
384.66	909.00
384.79	891.00
384.93	849.00
385.06	859.00
385.19	854.00
385.33	981.00
385.46	909.00
385.59	829.00
385.72	872.00
385.86	804.00
385.99	841.00
386.12	846.00
386.25	835.00
386.39	904.00
386.52	934.00
386.65	868.00
386.79	852.00
386.92	853.00
387.05	960.00
387.18	820.00
387.32	820.00
387.45	906.00
387.58	893.00
387.71	867.00
387.85	854.00
387.98	901.00
388.11	907.00
388.25	883.00
388.38	853.00
388.51	899.00
388.64	918.00
388.78	843.00
388.91	818.00
389.04	862.00
389.17	974.00
389.31	875.00
389.44	907.00
389.57	940.00
389.70	898.00
389.84	855.00
389.97	841.00
390.10	846.00
390.24	895.00
390.37	870.00
390.50	846.00
390.63	949.00
390.77	889.00
390.90	878.00
391.03	862.00
391.16	838.00
391.30	865.00
391.43	826.00
391.56	838.00
391.69	852.00
391.83	934.00
391.96	883.00
392.09	868.00
392.22	980.00
392.36	889.00
392.49	843.00
392.62	870.00
392.75	908.00
392.89	947.00
393.02	842.00
393.15	830.00
393.28	824.00
393.42	982.00
393.55	841.00
393.68	866.00
393.81	816.00
393.95	864.00
394.08	854.00
394.21	861.00
394.34	929.00
394.48	915.00
394.61	894.00
394.74	894.00
394.87	935.00
395.01	927.00
395.14	923.00
395.27	858.00
395.40	979.00
395.54	980.00
395.67	886.00
395.80	874.00
395.93	924.00
396.07	857.00
396.20	874.00
396.33	828.00
396.46	887.00
396.59	885.00
396.73	879.00
396.86	866.00
396.99	954.00
397.12	905.00
397.26	906.00
397.39	880.00
397.52	1174.00
397.65	1002.00
397.79	886.00
397.92	870.00
398.05	946.00
398.18	882.00
398.32	884.00
398.45	907.00
398.58	900.00
398.71	907.00
398.84	844.00
398.98	880.00
399.11	932.00
399.24	924.00
399.37	870.00
399.51	843.00
399.64	913.00
399.77	904.00
399.90	879.00
400.03	894.00
400.17	847.00
400.30	949.00
400.43	923.00
400.56	889.00
400.70	902.00
400.83	877.00
400.96	869.00
401.09	893.00
401.23	910.00
401.36	983.00
401.49	870.00
401.62	905.00
401.75	880.00
401.89	863.00
402.02	881.00
402.15	886.00
402.28	931.00
402.41	909.00
402.55	879.00
402.68	910.00
402.81	974.00
402.94	941.00
403.08	887.00
403.21	860.00
403.34	937.00
403.47	948.00
403.60	867.00
403.74	918.00
403.87	947.00
404.00	874.00
404.13	870.00
404.26	838.00
404.40	854.00
404.53	920.00
404.66	890.00
404.79	863.00
404.93	949.00
405.06	916.00
405.19	853.00
405.32	892.00
405.45	948.00
405.59	947.00
405.72	897.00
405.85	868.00
405.98	1076.00
406.11	891.00
406.25	879.00
406.38	876.00
406.51	946.00
406.64	905.00
406.77	865.00
406.91	873.00
407.04	934.00
407.17	897.00
407.30	917.00
407.43	901.00
407.57	987.00
407.70	982.00
407.83	883.00
407.96	922.00
408.09	890.00
408.23	995.00
408.36	905.00
408.49	904.00
408.62	1027.00
408.75	930.00
408.89	891.00
409.02	912.00
409.15	936.00
409.28	1010.00
409.41	930.00
409.55	915.00
409.68	1036.00
409.81	944.00
409.94	898.00
410.07	930.00
410.20	931.00
410.34	893.00
410.47	919.00
410.60	932.00
410.73	948.00
410.86	872.00
411.00	923.00
411.13	901.00
411.26	924.00
411.39	933.00
411.52	938.00
411.66	899.00
411.79	913.00
411.92	912.00
412.05	921.00
412.18	899.00
412.31	926.00
412.45	964.00
412.58	966.00
412.71	882.00
412.84	951.00
412.97	1022.00
413.11	939.00
413.24	950.00
413.37	986.00
413.50	1031.00
413.63	936.00
413.76	936.00
413.90	974.00
414.03	916.00
414.16	919.00
414.29	942.00
414.42	958.00
414.56	1062.00
414.69	905.00
414.82	919.00
414.95	923.00
415.08	953.00
415.21	922.00
415.35	953.00
415.48	877.00
415.61	1004.00
415.74	991.00
415.87	887.00
416.00	970.00
416.14	1040.00
416.27	935.00
416.40	903.00
416.53	954.00
416.66	978.00
416.79	940.00
416.93	902.00
417.06	980.00
417.19	944.00
417.32	926.00
417.45	923.00
417.58	910.00
417.72	997.00
417.85	935.00
417.98	931.00
418.11	982.00
418.24	923.00
418.37	938.00
418.51	938.00
418.64	950.00
418.77	1029.00
418.90	950.00
419.03	901.00
419.16	961.00
419.29	991.00
419.43	932.00
419.56	900.00
419.69	1069.00
419.82	1018.00
419.95	958.00
420.08	1001.00
420.22	1025.00
420.35	1085.00
420.48	999.00
420.61	941.00
420.74	910.00
420.87	993.00
421.00	915.00
421.14	931.00
421.27	1012.00
421.40	1028.00
421.53	974.00
421.66	943.00
421.79	970.00
421.93	967.00
422.06	948.00
422.19	934.00
422.32	1029.00
422.45	1010.00
422.58	964.00
422.71	935.00
422.85	1022.00
422.98	1019.00
423.11	932.00
423.24	910.00
423.37	942.00
423.50	946.00
423.63	984.00
423.77	942.00
423.90	929.00
424.03	994.00
424.16	991.00
424.29	952.00
424.42	916.00
424.55	939.00
424.69	902.00
424.82	951.00
424.95	976.00
425.08	934.00
425.21	981.00
425.34	935.00
425.47	969.00
425.60	1002.00
425.74	912.00
425.87	960.00
426.00	980.00
426.13	993.00
426.26	938.00
426.39	934.00
426.52	969.00
426.66	1038.00
426.79	993.00
426.92	947.00
427.05	1073.00
427.18	1051.00
427.31	977.00
427.44	970.00
427.57	924.00
427.71	965.00
427.84	948.00
427.97	967.00
428.10	1054.00
428.23	1004.00
428.36	972.00
428.49	902.00
428.62	1124.00
428.76	1104.00
428.89	1021.00
429.02	933.00
429.15	978.00
429.28	1089.00
429.41	949.00
429.54	980.00
429.67	991.00
429.81	1043.00
429.94	994.00
430.07	968.00
430.20	1058.00
430.33	1074.00
430.46	950.00
430.59	936.00
430.72	982.00
430.85	935.00
430.99	969.00
431.12	952.00
431.25	1042.00
431.38	1083.00
431.51	1008.00
431.64	979.00
431.77	1086.00
431.90	1091.00
432.03	995.00
432.17	959.00
432.30	1021.00
432.43	1032.00
432.56	996.00
432.69	1025.00
432.82	1028.00
432.95	1040.00
433.08	1003.00
433.21	1007.00
433.35	994.00
433.48	1015.00
433.61	967.00
433.74	992.00
433.87	979.00
434.00	1044.00
434.13	987.00
434.26	1008.00
434.39	1012.00
434.53	1048.00
434.66	1005.00
434.79	1004.00
434.92	1005.00
435.05	1072.00
435.18	987.00
435.31	1040.00
435.44	1106.00
435.57	1041.00
435.70	1011.00
435.84	980.00
435.97	1097.00
436.10	1134.00
436.23	988.00
436.36	1001.00
436.49	1024.00
436.62	1048.00
436.75	1017.00
436.88	1054.00
437.01	987.00
437.14	985.00
437.28	966.00
437.41	992.00
437.54	1096.00
437.67	1064.00
437.80	993.00
437.93	978.00
438.06	1168.00
438.19	1069.00
438.32	982.00
438.45	990.00
438.58	1054.00
438.72	1130.00
438.85	1080.00
438.98	1012.00
439.11	1052.00
439.24	1118.00
439.37	1108.00
439.50	1059.00
439.63	1090.00
439.76	1014.00
439.89	996.00
440.02	1022.00
440.15	1100.00
440.29	1134.00
440.42	1023.00
440.55	1041.00
440.68	1117.00
440.81	1186.00
440.94	1068.00
441.07	1039.00
441.20	1154.00
441.33	1087.00
441.46	1053.00
441.59	1018.00
441.72	1052.00
441.85	1062.00
441.99	1086.00
442.12	1097.00
442.25	1171.00
442.38	1086.00
442.51	1077.00
442.64	1009.00
442.77	1052.00
442.90	1041.00
443.03	1006.00
443.16	1031.00
443.29	1067.00
443.42	1150.00
443.55	1053.00
443.68	1050.00
443.82	994.00
443.95	1053.00
444.08	1050.00
444.21	1054.00
444.34	1034.00
444.47	1086.00
444.60	1071.00
444.73	1081.00
444.86	1076.00
444.99	1146.00
445.12	1108.00
445.25	1064.00
445.38	1096.00
445.51	1125.00
445.64	1081.00
445.78	1047.00
445.91	1001.00
446.04	1202.00
446.17	1110.00
446.30	1031.00
446.43	1095.00
446.56	1106.00
446.69	1076.00
446.82	1072.00
446.95	1144.00
447.08	1155.00
447.21	1109.00
447.34	1072.00
447.47	1135.00
447.60	1132.00
447.73	1085.00
447.86	1119.00
447.99	1110.00
448.13	1126.00
448.26	1133.00
448.39	1079.00
448.52	1143.00
448.65	1173.00
448.78	1104.00
448.91	1082.00
449.04	1127.00
449.17	1085.00
449.30	1133.00
449.43	1138.00
449.56	1102.00
449.69	1198.00
449.82	1125.00
449.95	1057.00
450.08	1182.00
450.21	1170.00
450.34	1131.00
450.47	1110.00
450.60	1166.00
450.73	1145.00
450.87	1102.00
451.00	1138.00
451.13	1162.00
451.26	1310.00
451.39	1132.00
451.52	1168.00
451.65	1137.00
451.78	1110.00
451.91	1104.00
452.04	1094.00
452.17	1230.00
452.30	1230.00
452.43	1122.00
452.56	1139.00
452.69	1208.00
452.82	1122.00
452.95	1190.00
453.08	1100.00
453.21	1062.00
453.34	1187.00
453.47	1110.00
453.60	1205.00
453.73	1264.00
453.86	1209.00
453.99	1174.00
454.12	1159.00
454.25	1156.00
454.38	1177.00
454.52	1129.00
454.65	1136.00
454.78	1148.00
454.91	1115.00
455.04	1144.00
455.17	1134.00
455.30	1154.00
455.43	1252.00
455.56	1175.00
455.69	1125.00
455.82	1204.00
455.95	1210.00
456.08	1134.00
456.21	1130.00
456.34	1142.00
456.47	1145.00
456.60	1155.00
456.73	1141.00
456.86	1183.00
456.99	1212.00
457.12	1174.00
457.25	1193.00
457.38	1287.00
457.51	1259.00
457.64	1219.00
457.77	1162.00
457.90	1194.00
458.03	1198.00
458.16	1198.00
458.29	1184.00
458.42	1199.00
458.55	1171.00
458.68	1181.00
458.81	1212.00
458.94	1293.00
459.07	1333.00
459.20	1187.00
459.33	1207.00
459.46	1289.00
459.59	1349.00
459.72	1275.00
459.85	1225.00
459.98	1323.00
460.11	1281.00
460.24	1248.00
460.37	1217.00
460.50	1271.00
460.63	1265.00
460.76	1237.00
460.89	1228.00
461.02	1283.00
461.15	1294.00
461.28	1240.00
461.41	1231.00
461.54	1353.00
461.67	1227.00
461.80	1272.00
461.93	1297.00
462.06	1309.00
462.19	1350.00
462.32	1268.00
462.45	1230.00
462.58	1309.00
462.71	1249.00
462.84	1251.00
462.97	1210.00
463.10	1269.00
463.23	1297.00
463.36	1326.00
463.49	1310.00
463.62	1252.00
463.75	1319.00
463.88	1270.00
464.01	1291.00
464.14	1262.00
464.27	1420.00
464.40	1284.00
464.53	1281.00
464.66	1358.00
464.79	1333.00
464.92	1320.00
465.05	1287.00
465.18	1334.00
465.31	1320.00
465.44	1334.00
465.57	1308.00
465.70	1321.00
465.83	1462.00
465.96	1365.00
466.09	1319.00
466.22	1416.00
466.35	1396.00
466.48	1330.00
466.61	1361.00
466.74	1354.00
466.87	1429.00
467.00	1394.00
467.13	1374.00
467.26	1407.00
467.39	1348.00
467.52	1353.00
467.65	1341.00
467.78	1467.00
467.91	1391.00
468.04	1406.00
468.17	1360.00
468.30	1383.00
468.43	1354.00
468.56	1379.00
468.69	1437.00
468.82	1420.00
468.95	1380.00
469.08	1390.00
469.21	1423.00
469.34	1464.00
469.47	1549.00
469.60	1519.00
469.73	1435.00
469.86	1461.00
469.99	1500.00
470.11	1415.00
470.24	1446.00
470.37	1505.00
470.50	1460.00
470.63	1438.00
470.76	1443.00
470.89	1518.00
471.02	1620.00
471.15	1457.00
471.28	1476.00
471.41	1601.00
471.54	1507.00
471.67	1456.00
471.80	1417.00
471.93	1573.00
472.06	1511.00
472.19	1504.00
472.32	1457.00
472.45	1642.00
472.58	1596.00
472.71	1531.00
472.84	1518.00
472.97	1525.00
473.10	1479.00
473.23	1577.00
473.36	1513.00
473.49	1629.00
473.62	1603.00
473.74	1585.00
473.87	1565.00
474.00	1555.00
474.13	1566.00
474.26	1589.00
474.39	1623.00
474.52	1594.00
474.65	1616.00
474.78	1627.00
474.91	1578.00
475.04	1642.00
475.17	1744.00
475.30	1665.00
475.43	1663.00
475.56	1700.00
475.69	1648.00
475.82	1694.00
475.95	1651.00
476.08	1762.00
476.21	1677.00
476.34	1707.00
476.46	1696.00
476.59	1760.00
476.72	1715.00
476.85	1700.00
476.98	1668.00
477.11	1746.00
477.24	1718.00
477.37	1686.00
477.50	1703.00
477.63	1749.00
477.76	1744.00
477.89	1678.00
478.02	1676.00
478.15	1779.00
478.28	1732.00
478.41	1793.00
478.54	1752.00
478.66	1819.00
478.79	1775.00
478.92	1758.00
479.05	1800.00
479.18	1809.00
479.31	1760.00
479.44	1789.00
479.57	1768.00
479.70	1832.00
479.83	1833.00
479.96	1807.00
480.09	1882.00
480.22	2013.00
480.35	1947.00
480.48	1906.00
480.60	1869.00
480.73	1857.00
480.86	1922.00
480.99	1868.00
481.12	1879.00
481.25	1873.00
481.38	1963.00
481.51	1903.00
481.64	1925.00
481.77	1955.00
481.90	1917.00
482.03	1905.00
482.16	1910.00
482.29	2009.00
482.41	1961.00
482.54	1986.00
482.67	1943.00
482.80	1981.00
482.93	2035.00
483.06	1950.00
483.19	2014.00
483.32	2028.00
483.45	1992.00
483.58	2023.00
483.71	2068.00
483.84	2045.00
483.97	2086.00
484.09	2018.00
484.22	2002.00
484.35	2015.00
484.48	1994.00
484.61	2042.00
484.74	2075.00
484.87	2087.00
485.00	2062.00
485.13	2077.00
485.26	2039.00
485.39	2132.00
485.52	2076.00
485.64	2169.00
485.77	2105.00
485.90	2173.00
486.03	2108.00
486.16	2130.00
486.29	2090.00
486.42	2128.00
486.55	2134.00
486.68	2149.00
486.81	2169.00
486.94	2160.00
487.06	2166.00
487.19	2189.00
487.32	2185.00
487.45	2182.00
487.58	2148.00
487.71	2171.00
487.84	2142.00
487.97	2269.00
488.10	2260.00
488.23	2228.00
488.35	2142.00
488.48	2234.00
488.61	2203.00
488.74	2232.00
488.87	2245.00
489.00	2249.00
489.13	2385.00
489.26	2323.00
489.39	2304.00
489.52	2329.00
489.64	2323.00
489.77	2262.00
489.90	2298.00
490.03	2277.00
490.16	2302.00
490.29	2325.00
490.42	2291.00
490.55	2343.00
490.68	2285.00
490.81	2290.00
490.93	2260.00
491.06	2443.00
491.19	2394.00
491.32	2388.00
491.45	2387.00
491.58	2334.00
491.71	2376.00
491.84	2379.00
491.97	2390.00
492.09	2448.00
492.22	2406.00
492.35	2413.00
492.48	2443.00
492.61	2427.00
492.74	2395.00
492.87	2414.00
493.00	2433.00
493.12	2396.00
493.25	2429.00
493.38	2428.00
493.51	2408.00
493.64	2403.00
493.77	2471.00
493.90	2513.00
494.03	2510.00
494.16	2533.00
494.28	2552.00
494.41	2492.00
494.54	2511.00
494.67	2608.00
494.80	2558.00
494.93	2501.00
495.06	2549.00
495.19	2585.00
495.31	2534.00
495.44	2509.00
495.57	2483.00
495.70	2595.00
495.83	2543.00
495.96	2512.00
496.09	2516.00
496.22	2630.00
496.34	2671.00
496.47	2562.00
496.60	2597.00
496.73	2622.00
496.86	2646.00
496.99	2555.00
497.12	2603.00
497.24	2581.00
497.37	2638.00
497.50	2590.00
497.63	2569.00
497.76	2617.00
497.89	2718.00
498.02	2675.00
498.15	2569.00
498.27	2659.00
498.40	2698.00
498.53	2731.00
498.66	2664.00
498.79	2682.00
498.92	2632.00
499.05	2675.00
499.17	2694.00
499.30	2709.00
499.43	2775.00
499.56	2716.00
499.69	2632.00
499.82	2758.00
499.95	2736.00
500.07	2677.00
500.20	2746.00
500.33	2747.00
500.46	2895.00
500.59	2744.00
500.72	2768.00
500.85	2828.00
500.97	2823.00
501.10	2828.00
501.23	2747.00
501.36	2794.00
501.49	2879.00
501.62	2789.00
501.75	2810.00
501.87	2860.00
502.00	2761.00
502.13	2847.00
502.26	2844.00
502.39	2798.00
502.52	2768.00
502.64	2762.00
502.77	2826.00
502.90	2878.00
503.03	2814.00
503.16	2822.00
503.29	2848.00
503.42	2916.00
503.54	2887.00
503.67	2866.00
503.80	2901.00
503.93	2924.00
504.06	2863.00
504.19	2899.00
504.31	2948.00
504.44	2909.00
504.57	2922.00
504.70	2931.00
504.83	2862.00
504.96	2968.00
505.08	2963.00
505.21	2955.00
505.34	3075.00
505.47	3042.00
505.60	3025.00
505.73	3003.00
505.85	3041.00
505.98	3138.00
506.11	2960.00
506.24	3005.00
506.37	2918.00
506.50	2981.00
506.62	3063.00
506.75	3011.00
506.88	3009.00
507.01	3042.00
507.14	2971.00
507.27	3054.00
507.39	3041.00
507.52	3064.00
507.65	3027.00
507.78	3074.00
507.91	3044.00
508.04	3104.00
508.16	3100.00
508.29	3065.00
508.42	3049.00
508.55	3078.00
508.68	3083.00
508.81	3120.00
508.93	3060.00
509.06	3091.00
509.19	3141.00
509.32	3159.00
509.45	3175.00
509.57	3175.00
509.70	3118.00
509.83	3146.00
509.96	3123.00
510.09	3099.00
510.22	3163.00
510.34	3222.00
510.47	3157.00
510.60	3258.00
510.73	3172.00
510.86	3206.00
510.98	3188.00
511.11	3156.00
511.24	3248.00
511.37	3227.00
511.50	3199.00
511.63	3224.00
511.75	3194.00
511.88	3220.00
512.01	3230.00
512.14	3237.00
512.27	3243.00
512.39	3240.00
512.52	3222.00
512.65	3241.00
512.78	3228.00
512.91	3263.00
513.03	3268.00
513.16	3340.00
513.29	3287.00
513.42	3297.00
513.55	3281.00
513.67	3311.00
513.80	3214.00
513.93	3279.00
514.06	3284.00
514.19	3342.00
514.31	3357.00
514.44	3400.00
514.57	3343.00
514.70	3404.00
514.83	3412.00
514.95	3312.00
515.08	3331.00
515.21	3401.00
515.34	3395.00
515.47	3384.00
515.59	3312.00
515.72	3389.00
515.85	3433.00
515.98	3460.00
516.11	3435.00
516.23	3477.00
516.36	3443.00
516.49	3414.00
516.62	3419.00
516.75	3486.00
516.87	3520.00
517.00	3402.00
517.13	3458.00
517.26	3510.00
517.39	3472.00
517.51	3385.00
517.64	3471.00
517.77	3545.00
517.90	3458.00
518.02	3509.00
518.15	3444.00
518.28	3408.00
518.41	3462.00
518.54	3492.00
518.66	3493.00
518.79	3449.00
518.92	3517.00
519.05	3512.00
519.18	3475.00
519.30	3549.00
519.43	3471.00
519.56	3488.00
519.69	3527.00
519.81	3562.00
519.94	3530.00
520.07	3505.00
520.20	3555.00
520.33	3606.00
520.45	3658.00
520.58	3544.00
520.71	3619.00
520.84	3591.00
520.96	3582.00
521.09	3579.00
521.22	3587.00
521.35	3651.00
521.48	3641.00
521.60	3641.00
521.73	3611.00
521.86	3665.00
521.99	3757.00
522.11	3655.00
522.24	3602.00
522.37	3621.00
522.50	3629.00
522.62	3716.00
522.75	3608.00
522.88	3691.00
523.01	3627.00
523.14	3691.00
523.26	3676.00
523.39	3779.00
523.52	3663.00
523.65	3787.00
523.77	3710.00
523.90	3725.00
524.03	3713.00
524.16	3710.00
524.28	3703.00
524.41	3704.00
524.54	3698.00
524.67	3675.00
524.79	3721.00
524.92	3777.00
525.05	3795.00
525.18	3699.00
525.31	3770.00
525.43	3709.00
525.56	3871.00
525.69	3743.00
525.82	3709.00
525.94	3807.00
526.07	3826.00
526.20	3828.00
526.33	3807.00
526.45	3933.00
526.58	3862.00
526.71	3804.00
526.84	3765.00
526.96	3826.00
527.09	3792.00
527.22	3796.00
527.35	3847.00
527.47	3773.00
527.60	3903.00
527.73	3792.00
527.86	3866.00
527.98	3851.00
528.11	3851.00
528.24	3865.00
528.37	3835.00
528.49	3857.00
528.62	3821.00
528.75	3883.00
528.88	3852.00
529.00	3884.00
529.13	3936.00
529.26	3873.00
529.39	3978.00
529.51	4071.00
529.64	3963.00
529.77	3851.00
529.90	3833.00
530.02	3878.00
530.15	3915.00
530.28	3835.00
530.40	3885.00
530.53	3954.00
530.66	3984.00
530.79	3938.00
530.91	3928.00
531.04	3949.00
531.17	3978.00
531.30	3966.00
531.42	3980.00
531.55	3974.00
531.68	4051.00
531.81	3971.00
531.93	3964.00
532.06	4023.00
532.19	3958.00
532.31	3967.00
532.44	3978.00
532.57	4023.00
532.70	3955.00
532.82	3999.00
532.95	4048.00
533.08	4055.00
533.21	4115.00
533.33	3984.00
533.46	3969.00
533.59	3964.00
533.71	4135.00
533.84	4005.00
533.97	3988.00
534.10	4042.00
534.22	4085.00
534.35	4051.00
534.48	4051.00
534.61	4085.00
534.73	4031.00
534.86	4066.00
534.99	4074.00
535.11	4121.00
535.24	4132.00
535.37	4082.00
535.50	4054.00
535.62	4087.00
535.75	4174.00
535.88	4117.00
536.00	4114.00
536.13	4126.00
536.26	4154.00
536.39	4116.00
536.51	4100.00
536.64	4178.00
536.77	4148.00
536.89	4087.00
537.02	4168.00
537.15	4167.00
537.28	4143.00
537.40	4164.00
537.53	4152.00
537.66	4200.00
537.78	4209.00
537.91	4149.00
538.04	4162.00
538.17	4213.00
538.29	4169.00
538.42	4249.00
538.55	4220.00
538.67	4246.00
538.80	4157.00
538.93	4195.00
539.05	4224.00
539.18	4304.00
539.31	4281.00
539.44	4259.00
539.56	4177.00
539.69	4229.00
539.82	4194.00
539.94	4245.00
540.07	4236.00
540.20	4349.00
540.32	4229.00
540.45	4241.00
540.58	4241.00
540.71	4312.00
540.83	4234.00
540.96	4238.00
541.09	4296.00
541.21	4404.00
541.34	4350.00
541.47	4281.00
541.59	4326.00
541.72	4414.00
541.85	4507.00
541.98	4403.00
542.10	4338.00
542.23	4344.00
542.36	4414.00
542.48	4324.00
542.61	4359.00
542.74	4298.00
542.86	4340.00
542.99	4378.00
543.12	4321.00
543.24	4378.00
543.37	4304.00
543.50	4368.00
543.62	4327.00
543.75	4340.00
543.88	4361.00
544.01	4369.00
544.13	4440.00
544.26	4458.00
544.39	4369.00
544.51	4347.00
544.64	4340.00
544.77	4416.00
544.89	4378.00
545.02	4442.00
545.15	4380.00
545.27	4545.00
545.40	4551.00
545.53	4457.00
545.65	4462.00
545.78	4418.00
545.91	4368.00
546.03	4425.00
546.16	4451.00
546.29	4436.00
546.41	4419.00
546.54	4461.00
546.67	4450.00
546.79	4510.00
546.92	4557.00
547.05	4488.00
547.17	4477.00
547.30	4483.00
547.43	4529.00
547.56	4521.00
547.68	4475.00
547.81	4448.00
547.94	4530.00
548.06	4510.00
548.19	4494.00
548.32	4580.00
548.44	4517.00
548.57	4533.00
548.70	4586.00
548.82	4582.00
548.95	4564.00
549.08	4546.00
549.20	4510.00
549.33	4606.00
549.45	4584.00
549.58	4513.00
549.71	4494.00
549.83	4657.00
549.96	4555.00
550.09	4575.00
550.21	4575.00
550.34	4581.00
550.47	4571.00
550.59	4596.00
550.72	4541.00
550.85	4602.00
550.97	4682.00
551.10	4600.00
551.23	4586.00
551.35	4683.00
551.48	4653.00
551.61	4657.00
551.73	4644.00
551.86	4742.00
551.99	4696.00
552.11	4619.00
552.24	4689.00
552.37	4662.00
552.49	4680.00
552.62	4697.00
552.75	4710.00
552.87	4706.00
553.00	4683.00
553.12	4682.00
553.25	4679.00
553.38	4749.00
