Wavelength (nm)	Reflectance (%)
377.35	0.0000
377.48	0.0000
377.62	0.0000
377.75	35.4043
377.88	0.0000
378.02	150.9524
378.15	200.0000
378.28	200.0000
378.41	200.0000
378.55	150.7059
378.68	0.0000
378.81	200.0000
378.95	200.0000
379.08	200.0000
379.21	200.0000
379.35	81.5484
379.48	131.0233
379.61	132.8000
379.74	71.9684
379.88	0.0000
380.01	24.1031
380.14	52.7107
380.28	5.7442
380.41	0.0000
380.54	80.8337
380.68	78.0035
380.81	30.5479
380.94	14.1595
381.07	45.1603
381.21	53.3716
381.34	0.0000
381.47	16.5932
381.61	83.2753
381.74	64.6594
381.87	0.0000
382.00	54.6394
382.14	79.4455
382.27	11.8158
382.40	0.0000
382.54	42.0096
382.67	50.1912
382.80	14.7488
382.93	39.8246
383.07	51.2054
383.20	45.4740
383.33	68.0820
383.47	26.4472
383.60	22.0185
383.73	48.0123
383.86	42.9254
384.00	0.0000
384.13	36.5617
384.26	47.3262
384.40	19.5616
384.53	7.0543
384.66	27.1473
384.79	47.1181
384.93	40.5737
385.06	19.8426
385.19	23.3477
385.33	26.7260
385.46	4.5229
385.59	15.4610
385.72	51.6850
385.86	42.4074
385.99	41.4258
386.12	41.9037
386.25	12.9438
386.39	18.2660
386.52	33.6623
386.65	25.1922
386.79	4.0575
386.92	38.9321
387.05	48.7800
387.18	25.6918
387.32	19.7263
387.45	59.6598
387.58	49.6406
387.71	30.9382
387.85	35.8773
387.98	35.1057
388.11	35.5739
388.25	22.3495
388.38	12.8505
388.51	23.5387
388.64	46.1047
388.78	46.1979
388.91	20.5134
389.04	43.0786
389.17	38.5684
389.31	5.4521
389.44	0.0000
389.57	35.4683
389.70	33.8087
389.84	40.8501
389.97	43.6838
390.10	48.9041
390.24	50.9365
390.37	28.1515
390.50	24.1145
390.63	29.0950
390.77	21.3829
390.90	22.7968
391.03	40.3333
391.16	33.1506
391.30	37.0088
391.43	52.0388
391.56	30.0043
391.69	32.6403
391.83	49.7253
391.96	26.3323
392.09	15.5446
392.22	45.0314
392.36	46.7012
392.49	16.4377
392.62	19.3188
392.75	28.6376
392.89	20.3137
393.02	24.7079
393.15	12.2724
393.28	36.2371
393.42	26.7259
393.55	28.2692
393.68	17.6948
393.81	42.4935
393.95	41.4426
394.08	37.1714
394.21	27.1356
394.34	25.1109
394.48	27.2945
394.61	17.4572
394.74	24.2292
394.87	23.6277
395.01	43.3566
395.14	29.1581
395.27	17.7869
395.40	27.2518
395.54	34.3049
395.67	11.6798
395.80	26.0993
395.93	41.8014
396.07	40.6595
396.20	36.2234
396.33	39.3607
396.46	41.3780
396.59	47.4783
396.73	29.9273
396.86	28.5009
396.99	46.2470
397.12	62.2791
397.26	13.8536
397.39	19.9000
397.52	39.3679
397.65	32.0673
397.79	2.0034
397.92	45.5387
398.05	55.5101
398.18	31.4324
398.32	20.2617
398.45	27.6504
398.58	34.3686
398.71	27.9576
398.84	27.6232
398.98	28.2846
399.11	34.6615
399.24	30.0794
399.37	30.5125
399.51	36.1292
399.64	37.5805
399.77	35.0193
399.90	39.9719
400.03	29.9172
400.17	24.1153
400.30	26.6770
400.43	27.1655
400.56	20.6495
400.70	36.0589
400.83	41.8363
400.96	42.0386
401.09	34.5093
401.23	35.6512
401.36	28.9708
401.49	28.4594
401.62	31.6289
401.75	40.5565
401.89	34.9261
402.02	34.2648
402.15	35.3221
402.28	37.2449
402.41	39.7866
402.55	31.3930
402.68	29.0158
402.81	35.6927
402.94	38.5449
403.08	30.2568
403.21	36.1774
403.34	47.3364
403.47	38.7670
403.60	27.8048
403.74	35.9295
403.87	39.7633
404.00	38.5370
404.13	45.3138
404.26	43.7769
404.40	39.5911
404.53	45.6308
404.66	33.0800
404.79	27.7923
404.93	42.3199
405.06	41.1068
405.19	31.9649
405.32	36.1182
405.45	43.8163
405.59	45.6511
405.72	23.8927
405.85	34.6159
405.98	45.8141
406.11	40.3403
406.25	24.5559
406.38	46.2951
406.51	44.2533
406.64	40.5076
406.77	36.2270
406.91	43.9430
407.04	45.8657
407.17	44.5714
407.30	32.9983
407.43	31.8544
407.57	37.7379
407.70	39.3688
407.83	41.9680
407.96	39.2864
408.09	49.9895
408.23	51.7735
408.36	35.8301
408.49	31.3268
408.62	50.3531
408.75	44.8516
408.89	39.7542
409.02	46.6563
409.15	46.7867
409.28	50.0940
409.41	38.3983
409.55	38.0651
409.68	53.3853
409.81	51.3199
409.94	42.0422
410.07	59.3438
410.20	60.2389
410.34	52.9027
410.47	51.6052
410.60	56.9317
410.73	52.4224
410.86	55.0081
411.00	55.8035
411.13	59.6587
411.26	52.9225
411.39	54.4893
411.52	51.9825
411.66	54.8816
411.79	53.3650
411.92	58.6454
412.05	58.8859
412.18	54.6549
412.31	49.5254
412.45	60.6024
412.58	60.6911
412.71	54.1474
412.84	63.3682
412.97	70.7272
413.11	62.3012
413.24	52.0870
413.37	63.0524
413.50	64.8418
413.63	58.2634
413.76	58.1202
413.90	70.5552
414.03	68.2698
414.16	65.7651
414.29	59.8325
414.42	66.3527
414.56	65.2493
414.69	66.0913
414.82	63.4889
414.95	72.2243
415.08	65.4539
415.21	74.2647
415.35	70.2355
415.48	66.4975
415.61	77.8810
415.74	83.3310
415.87	62.0317
416.00	68.3789
416.14	80.6978
416.27	72.9798
416.40	69.3537
416.53	82.8459
416.66	86.6264
416.79	78.2766
416.93	77.5085
417.06	80.6883
417.19	82.6556
417.32	84.1699
417.45	80.3467
417.58	81.8807
417.72	82.5559
417.85	77.0142
417.98	75.6598
418.11	84.1679
418.24	83.6691
418.37	84.1217
418.51	81.4972
418.64	77.9784
418.77	82.7338
418.90	82.8308
419.03	76.7111
419.16	88.2970
419.29	96.1696
419.43	79.7871
419.56	78.9823
419.69	90.2146
419.82	88.0348
419.95	82.0194
420.08	86.1659
420.22	86.3631
420.35	83.1634
420.48	88.4088
420.61	84.0652
420.74	95.1362
420.87	101.2125
421.00	98.3025
421.14	88.0342
421.27	93.2285
421.40	92.0981
421.53	90.2232
421.66	92.8629
421.79	97.2273
421.93	101.5701
422.06	97.7323
422.19	95.5841
422.32	97.1487
422.45	101.8178
422.58	95.1201
422.71	92.9086
422.85	97.8014
422.98	99.3481
423.11	97.0635
423.24	99.5567
423.37	101.7681
423.50	99.5138
423.63	98.9619
423.77	96.6116
423.90	93.0754
424.03	95.0185
424.16	98.4008
424.29	98.5901
424.42	102.0134
424.55	103.7640
424.69	103.5854
424.82	104.4966
424.95	99.3831
425.08	97.8408
425.21	99.7215
425.34	98.2171
425.47	96.4943
425.60	100.1783
425.74	99.6181
425.87	98.0587
426.00	101.2025
426.13	100.7127
426.26	100.9219
426.39	96.9421
426.52	99.9227
426.66	104.3493
426.79	95.9987
426.92	92.7528
427.05	99.8153
427.18	100.6518
427.31	97.0975
427.44	101.9904
427.57	107.5165
427.71	104.8941
427.84	98.3518
427.97	95.5644
428.10	101.3342
428.23	106.8832
428.36	100.0447
428.49	99.4170
428.62	103.1598
428.76	105.1324
428.89	97.7165
429.02	98.3835
429.15	105.0842
429.28	104.4071
429.41	100.2386
429.54	97.3903
429.67	104.3356
429.81	106.2895
429.94	101.4397
430.07	94.9580
430.20	99.6583
430.33	100.5703
430.46	98.0283
430.59	104.1269
430.72	108.4040
430.85	108.9462
430.99	104.7541
431.12	100.9050
431.25	101.3816
431.38	105.1551
431.51	98.4889
431.64	98.9197
431.77	104.1201
431.90	105.0985
432.03	101.8217
432.17	104.4006
432.30	107.9811
432.43	105.7778
432.56	101.9824
432.69	99.2125
432.82	101.3433
432.95	100.3682
433.08	101.2114
433.21	101.4447
433.35	106.2793
433.48	105.0284
433.61	106.1626
433.74	103.4123
433.87	106.0617
434.00	104.5628
434.13	104.3621
434.26	101.7999
434.39	105.8580
434.53	104.4764
434.66	106.2988
434.79	102.2371
434.92	106.3205
435.05	106.0353
435.18	100.8142
435.31	98.6434
435.44	104.2920
435.57	105.4921
435.70	102.5861
435.84	100.2732
435.97	102.6777
436.10	103.7881
436.23	99.4728
436.36	99.4326
436.49	105.6257
436.62	102.2530
436.75	99.5787
436.88	99.8558
437.01	103.4886
437.14	103.4283
437.28	100.3431
437.41	98.2636
437.54	101.7108
437.67	104.2921
437.80	96.6263
437.93	97.8933
438.06	104.5980
438.19	103.9097
438.32	98.5363
438.45	102.3221
438.58	104.5498
438.72	103.0800
438.85	100.8818
438.98	100.1436
439.11	102.6795
439.24	103.0991
439.37	99.1625
439.50	101.3630
439.63	104.9770
439.76	106.7430
439.89	106.6006
440.02	105.2827
440.15	104.5866
440.29	105.8600
440.42	103.1644
440.55	99.5385
440.68	105.5088
440.81	106.7551
440.94	99.7055
441.07	100.2351
441.20	105.3901
441.33	102.2684
441.46	99.5989
441.59	103.9518
441.72	105.3532
441.85	103.5485
441.99	100.6165
442.12	99.8296
442.25	99.5460
442.38	101.3193
442.51	100.7929
442.64	102.6014
442.77	104.3090
442.90	105.1283
443.03	102.6992
443.16	99.9941
443.29	101.6615
443.42	99.9337
443.55	99.7552
443.68	99.9896
443.82	103.7982
443.95	101.2090
444.08	102.2616
444.21	100.7004
444.34	100.4548
444.47	99.8289
444.60	102.3799
444.73	99.9389
444.86	100.6153
444.99	101.6860
445.12	103.1897
445.25	100.9603
445.38	102.1447
445.51	104.0722
445.64	107.2493
445.78	100.6913
445.91	99.5721
446.04	103.9519
446.17	100.5965
446.30	95.4555
446.43	101.9989
446.56	104.9522
446.69	99.4669
446.82	98.5007
446.95	100.5886
447.08	101.2799
447.21	99.1154
447.34	99.8628
447.47	102.2761
447.60	99.7114
447.73	98.3357
447.86	99.8495
447.99	100.1331
448.13	101.4409
448.26	101.9798
448.39	100.0328
448.52	100.9623
448.65	101.5899
448.78	98.5010
448.91	100.7410
449.04	100.6205
449.17	99.0270
449.30	99.8787
449.43	98.4204
449.56	96.9191
449.69	100.9237
449.82	99.5848
449.95	97.2168
450.08	100.2712
450.21	101.1271
450.34	97.4924
450.47	99.6821
450.60	102.2864
450.73	103.4143
450.87	102.0204
451.00	97.0872
451.13	97.9003
451.26	96.0575
451.39	94.3084
451.52	94.5416
451.65	100.2374
451.78	101.0042
451.91	98.7743
452.04	96.5377
452.17	99.0051
452.30	99.5943
452.43	95.3852
452.56	99.7350
452.69	99.1115
452.82	96.7418
452.95	97.4142
453.08	96.5741
453.21	95.9266
453.34	98.2964
453.47	95.3547
453.60	93.3378
453.73	95.9855
453.86	94.1506
453.99	94.6127
454.12	96.8253
454.25	98.2852
454.38	97.5140
454.52	98.0924
454.65	98.5899
454.78	98.0504
454.91	96.8952
455.04	98.0683
455.17	94.8822
455.30	94.6759
455.43	97.2965
455.56	95.7153
455.69	93.3871
455.82	97.0491
455.95	96.2306
456.08	94.7842
456.21	96.3927
456.34	96.8260
456.47	96.2770
456.60	96.3952
456.73	94.3654
456.86	94.1914
456.99	95.1696
457.12	92.8595
457.25	91.6830
457.38	92.5345
457.51	92.4494
457.64	92.0482
457.77	93.8249
457.90	94.5514
458.03	94.9199
458.16	94.1482
458.29	94.9374
458.42	95.4959
458.55	96.1874
458.68	94.2885
458.81	90.9289
458.94	92.2830
459.07	93.4463
459.20	92.0134
459.33	91.1257
459.46	94.3804
459.59	94.4936
459.72	91.1960
459.85	91.1038
459.98	94.3111
460.11	96.1811
460.24	92.5510
460.37	93.7244
460.50	95.4043
460.63	95.1265
460.76	92.1583
460.89	93.1983
461.02	94.7872
461.15	94.5357
461.28	91.9415
461.41	94.5120
461.54	95.4166
461.67	93.3064
461.80	93.0007
461.93	93.8651
462.06	93.0089
462.19	93.6658
462.32	92.7588
462.45	92.6204
462.58	93.2357
462.71	93.6604
462.84	91.7955
462.97	92.2673
463.10	91.0099
463.23	91.1692
463.36	91.7584
463.49	91.9146
463.62	92.6437
463.75	93.8188
463.88	95.7931
464.01	91.8008
464.14	92.9122
464.27	94.1818
464.40	93.1751
464.53	91.3466
464.66	92.8901
464.79	93.1123
464.92	91.9380
465.05	92.1764
465.18	92.1755
465.31	93.6575
465.44	93.3959
465.57	90.6208
465.70	91.3714
465.83	93.2816
465.96	91.7480
466.09	90.7475
466.22	94.2854
466.35	94.5540
466.48	93.0316
466.61	93.1407
466.74	92.7318
466.87	91.7376
467.00	90.3108
467.13	91.2664
467.26	93.0575
467.39	93.9265
467.52	92.3207
467.65	93.4377
467.78	92.2576
467.91	90.9325
468.04	90.8609
468.17	93.3818
468.30	93.4894
468.43	92.9821
468.56	92.2339
468.69	93.4015
468.82	92.8401
468.95	92.7726
469.08	93.9053
469.21	93.4335
469.34	91.4298
469.47	92.4828
469.60	92.3861
469.73	91.1835
469.86	93.9844
469.99	95.1725
470.11	92.9799
470.24	92.5574
470.37	93.8180
470.50	93.1131
470.63	91.9496
470.76	91.2483
470.89	92.6827
471.02	92.8492
471.15	90.2817
471.28	89.7784
471.41	91.7940
471.54	91.8624
471.67	89.7372
471.80	90.8608
471.93	92.4095
472.06	93.2219
472.19	90.1893
472.32	90.5655
472.45	91.3138
472.58	90.8723
472.71	89.8801
472.84	92.0578
472.97	91.7360
473.10	92.4198
473.23	91.2341
473.36	90.5428
473.49	89.9364
473.62	90.3689
473.74	89.9713
473.87	91.9044
474.00	92.0215
474.13	91.5480
474.26	92.1490
474.39	91.6954
474.52	90.1094
474.65	91.2667
474.78	92.0087
474.91	90.0723
475.04	89.8547
475.17	90.7683
475.30	89.3293
475.43	89.1543
475.56	90.8121
475.69	91.7314
475.82	90.6900
475.95	91.5825
476.08	91.6376
476.21	91.5446
476.34	89.8764
476.46	90.9962
476.59	90.7208
476.72	91.0776
476.85	89.9048
476.98	90.1019
477.11	90.4524
477.24	89.9271
477.37	88.7524
477.50	90.0025
477.63	90.7107
477.76	90.2089
477.89	89.9928
478.02	90.2092
478.15	90.1080
478.28	90.4395
478.41	89.2621
478.54	89.8956
478.66	90.2461
478.79	90.2386
478.92	89.5164
479.05	90.4062
479.18	89.7653
479.31	89.9005
479.44	89.7176
479.57	89.6720
479.70	90.2842
479.83	90.9431
479.96	89.1505
480.09	88.5863
480.22	88.8553
480.35	88.2129
480.48	88.0469
480.60	88.7856
480.73	89.3742
480.86	89.4577
480.99	89.2161
481.12	88.2171
481.25	89.4425
481.38	89.5174
481.51	88.6969
481.64	88.7386
481.77	89.6066
481.90	89.1134
482.03	88.1202
482.16	88.6830
482.29	88.7216
482.41	89.0612
482.54	89.0824
482.67	89.5845
482.80	90.1117
482.93	89.6139
483.06	88.9780
483.19	89.2428
483.32	89.6972
483.45	88.8433
483.58	88.6273
483.71	88.3496
483.84	87.7787
483.97	87.3671
484.09	87.4046
484.22	88.1577
484.35	88.4163
484.48	88.3035
484.61	88.3571
484.74	88.7090
484.87	88.3053
485.00	88.6397
485.13	88.6989
485.26	89.1671
485.39	88.3309
485.52	88.2007
485.64	87.6346
485.77	88.2235
485.90	87.8360
486.03	88.7684
486.16	88.7917
486.29	88.8175
486.42	88.5365
486.55	88.0730
486.68	87.4988
486.81	87.9885
486.94	87.8469
487.06	87.1851
487.19	87.4547
487.32	87.6987
487.45	87.2020
487.58	87.7534
487.71	87.9086
487.84	87.5615
487.97	87.4452
488.10	87.9515
488.23	87.3054
488.35	87.7442
488.48	88.2414
488.61	88.3583
488.74	87.9850
488.87	87.5788
489.00	87.3722
489.13	87.4269
489.26	87.2736
489.39	87.1416
489.52	87.7557
489.64	87.5172
489.77	87.2579
489.90	86.9831
490.03	87.1212
490.16	87.3161
490.29	87.0248
490.42	87.3272
490.55	87.4594
490.68	87.9730
490.81	87.2183
490.93	87.5914
491.06	87.4446
491.19	87.2073
491.32	86.9810
491.45	87.4789
491.58	87.6684
491.71	87.9512
491.84	87.6794
491.97	87.2911
492.09	87.6423
492.22	87.2216
492.35	86.9465
492.48	87.6876
492.61	87.4852
492.74	87.1533
492.87	87.5735
493.00	87.1832
493.12	86.8306
493.25	87.2199
493.38	87.5255
493.51	86.9851
493.64	86.9939
493.77	87.0329
493.90	86.4325
494.03	85.9120
494.16	86.4248
494.28	86.9558
494.41	86.3362
494.54	86.4210
494.67	87.0780
494.80	86.7576
494.93	86.4123
495.06	87.1539
495.19	87.7057
495.31	87.5180
495.44	87.3559
495.57	87.5144
495.70	87.7869
495.83	87.7194
495.96	86.8943
496.09	86.6506
496.22	87.0692
496.34	86.6860
496.47	85.9796
496.60	86.0955
496.73	86.7469
496.86	85.8909
496.99	86.0580
497.12	86.3797
497.24	86.4558
497.37	86.2869
497.50	86.7138
497.63	85.9566
497.76	85.6697
497.89	86.6785
498.02	86.7581
498.15	86.4489
498.27	86.7302
498.40	87.1356
498.53	86.3941
498.66	86.6961
498.79	86.7111
498.92	86.8168
499.05	86.8840
499.17	86.2860
499.30	85.8120
499.43	86.3740
499.56	86.2824
499.69	86.1629
499.82	86.9138
499.95	87.1425
500.07	86.7188
500.20	86.0133
500.33	86.0138
500.46	86.1137
500.59	85.7851
500.72	85.4407
500.85	85.9852
500.97	86.4675
501.10	86.3657
501.23	85.9262
501.36	86.0425
501.49	86.4645
501.62	85.5198
501.75	85.6487
501.87	85.9628
502.00	85.8676
502.13	85.8261
502.26	86.1583
502.39	86.0833
502.52	86.1467
502.64	85.8753
502.77	85.7003
502.90	86.0694
503.03	85.9659
503.16	85.5551
503.29	85.9377
503.42	86.1373
503.54	85.9966
503.67	85.3720
503.80	86.3245
503.93	86.5310
504.06	85.9621
504.19	85.8754
504.31	86.1560
504.44	85.5995
504.57	85.7885
504.70	85.9764
504.83	85.9517
504.96	86.1073
505.08	85.5257
505.21	85.0700
505.34	85.3582
505.47	85.3640
505.60	85.4689
505.73	85.4885
505.85	85.9123
505.98	86.2108
506.11	86.2645
506.24	86.1052
506.37	86.3137
506.50	86.1328
506.62	85.7614
506.75	85.2830
506.88	85.5074
507.01	85.6893
507.14	85.5341
507.27	85.4617
507.39	85.8600
507.52	85.2398
507.65	85.5892
507.78	85.3447
507.91	85.1245
508.04	84.9084
508.16	85.2416
508.29	85.3985
508.42	85.8186
508.55	85.4576
508.68	85.6618
508.81	85.8291
508.93	85.3548
509.06	85.0475
509.19	85.6509
509.32	85.3401
509.45	85.2981
509.57	85.2966
509.70	85.4219
509.83	85.2740
509.96	85.4712
510.09	85.4347
510.22	85.7126
510.34	85.2782
510.47	85.4001
510.60	85.3313
510.73	85.2323
510.86	85.1404
510.98	85.3108
511.11	85.1074
511.24	85.2910
511.37	85.3122
511.50	85.1513
511.63	85.3335
511.75	85.3082
511.88	85.1185
512.01	84.9685
512.14	84.9769
512.27	84.8872
512.39	84.8037
512.52	84.8370
512.65	84.9551
512.78	84.8005
512.91	84.6924
513.03	84.6775
513.16	84.7311
513.29	84.6003
513.42	84.4321
513.55	84.8334
513.67	85.1683
513.80	84.9384
513.93	84.7932
514.06	85.1359
514.19	84.6883
514.31	84.7187
514.44	84.7190
514.57	84.5180
514.70	84.6698
514.83	84.9848
514.95	84.6723
515.08	84.6764
515.21	84.9810
515.34	84.9625
515.47	84.7036
515.59	84.7223
515.72	84.3932
515.85	84.5431
515.98	84.2206
516.11	84.1234
516.23	84.3382
516.36	84.9669
516.49	84.6903
516.62	84.5619
516.75	85.2184
516.87	85.1315
517.00	84.4513
517.13	84.6059
517.26	85.3216
517.39	84.7368
517.51	84.1611
517.64	84.7680
517.77	84.6186
517.90	84.1627
518.02	84.4958
518.15	84.7378
518.28	84.3411
518.41	84.2469
518.54	84.1851
518.66	84.0982
518.79	84.2836
518.92	84.2967
519.05	84.1243
519.18	84.1365
519.30	83.9286
519.43	83.8836
519.56	83.6621
519.69	84.0661
519.81	84.2327
519.94	84.1954
520.07	84.1199
520.20	84.2961
520.33	84.2975
520.45	84.1025
520.58	83.9443
520.71	83.9782
520.84	84.2522
520.96	84.2856
521.09	84.0278
521.22	84.0345
521.35	84.2891
521.48	84.2573
521.60	83.9822
521.73	83.6574
521.86	83.9174
521.99	83.8969
522.11	83.6289
522.24	83.8817
522.37	84.0436
522.50	84.3386
522.62	84.1518
522.75	84.3797
522.88	84.1529
523.01	84.3104
523.14	83.6460
523.26	83.9179
523.39	83.4996
523.52	83.6024
523.65	83.8335
523.77	84.0759
523.90	83.7261
524.03	84.0030
524.16	84.0322
524.28	83.8927
524.41	84.1550
524.54	84.2587
524.67	84.0084
524.79	83.6305
524.92	83.8866
525.05	83.4681
525.18	83.6308
525.31	83.1826
525.43	83.6525
525.56	83.9553
525.69	83.9374
525.82	83.5390
525.94	84.2910
526.07	84.2754
526.20	83.5022
526.33	83.5208
526.45	83.7588
526.58	83.8178
526.71	83.5166
526.84	83.9014
526.96	83.8898
527.09	83.8557
527.22	83.9421
527.35	83.6805
527.47	83.7568
527.60	83.7356
527.73	83.5204
527.86	83.2562
527.98	83.7406
528.11	83.3033
528.24	83.5849
528.37	83.6196
528.49	83.2854
528.62	83.5488
528.75	83.8180
528.88	83.5939
529.00	83.8486
529.13	84.2540
529.26	83.4586
529.39	83.1803
529.51	83.5290
529.64	83.4681
529.77	83.2160
529.90	83.6009
530.02	84.0205
530.15	83.7553
530.28	83.6130
530.40	83.6456
530.53	83.7786
530.66	83.2909
530.79	83.3035
530.91	83.2556
531.04	83.3485
531.17	83.1417
531.30	83.4020
531.42	82.8902
531.55	83.1427
531.68	83.3019
531.81	83.3163
531.93	83.4972
532.06	83.8678
532.19	83.5489
532.31	83.2603
532.44	83.5278
532.57	83.3909
532.70	83.3153
532.82	83.2080
532.95	83.1295
533.08	82.9987
533.21	83.0522
533.33	83.1643
533.46	82.8352
533.59	83.1404
533.71	83.2318
533.84	83.2236
533.97	83.2442
534.10	83.7079
534.22	83.6171
534.35	83.1871
534.48	83.1393
534.61	83.1870
534.73	83.0663
534.86	82.8138
534.99	83.0876
535.11	83.1000
535.24	83.1856
535.37	83.4918
535.50	83.4820
535.62	83.2642
535.75	83.2313
535.88	82.9810
536.00	82.6913
536.13	82.8977
536.26	83.2367
536.39	82.9627
536.51	83.1203
536.64	83.3213
536.77	83.1992
536.89	82.8700
537.02	83.0683
537.15	82.8623
537.28	82.8793
537.40	82.6804
537.53	82.6800
537.66	82.7857
537.78	83.0166
537.91	82.9439
538.04	83.5155
538.17	83.3926
538.29	82.9776
538.42	82.8564
538.55	83.0350
538.67	82.7381
538.80	83.2142
538.93	83.2678
539.05	83.1115
539.18	82.8242
539.31	83.0620
539.44	82.7007
539.56	82.8861
539.69	83.2079
539.82	83.3521
539.94	82.6651
540.07	82.7146
540.20	82.6978
540.32	82.3426
540.45	81.9284
540.58	82.5669
540.71	82.8260
540.83	82.9456
540.96	82.8042
541.09	82.8853
541.21	82.9603
541.34	82.9162
541.47	82.7420
541.59	82.6427
541.72	82.8766
541.85	82.9345
541.98	82.7890
542.10	82.3304
542.23	82.6368
542.36	82.6651
542.48	82.4598
542.61	82.3071
542.74	82.8185
542.86	82.9519
542.99	82.7550
543.12	82.7170
543.24	82.6735
543.37	82.6419
543.50	82.4819
543.62	82.7436
543.75	82.7006
543.88	82.6499
544.01	82.4735
544.13	82.5600
544.26	82.3959
544.39	82.2499
544.51	82.2550
544.64	82.4709
544.77	82.2345
544.89	82.3410
545.02	82.1317
545.15	81.8944
545.27	81.8194
545.40	81.8457
545.53	81.9144
545.65	82.3674
545.78	82.7043
545.91	82.5405
546.03	82.7647
546.16	82.6249
546.29	82.3589
546.41	82.5209
546.54	82.4906
546.67	82.1604
546.79	82.3904
546.92	82.4064
547.05	82.2918
547.17	82.3937
547.30	82.7420
547.43	82.4077
547.56	82.5085
547.68	82.4217
547.81	82.4635
547.94	82.4611
548.06	82.3224
548.19	82.3940
548.32	82.6102
548.44	82.5411
548.57	82.1834
548.70	82.3338
548.82	82.2812
548.95	82.2788
