Wavelength (nm)	Reflectance (%)
377.35	200.0000
377.48	200.0000
377.62	200.0000
377.75	200.0000
377.88	200.0000
378.02	200.0000
378.15	200.0000
378.28	200.0000
378.41	200.0000
378.55	200.0000
378.68	200.0000
378.81	200.0000
378.95	200.0000
379.08	200.0000
379.21	200.0000
379.35	200.0000
379.48	200.0000
379.61	0.0000
379.74	0.0000
379.88	0.0000
380.01	0.0000
380.14	0.0000
380.28	0.0000
380.41	0.0000
380.54	0.0000
380.68	0.0000
380.81	0.0000
380.94	0.0000
381.07	0.0000
381.21	0.0000
381.34	0.0000
381.47	0.0000
381.61	0.0000
381.74	0.0000
381.87	0.0000
382.00	0.0000
382.14	0.0000
382.27	0.0000
382.40	0.0000
382.54	0.0000
382.67	0.0000
382.80	0.0000
382.93	0.0000
383.07	0.0000
383.20	0.0000
383.33	0.0000
383.47	0.0000
383.60	0.0000
383.73	0.0000
383.86	0.0000
384.00	0.0000
384.13	0.0000
384.26	0.0000
384.40	0.0000
384.53	0.0000
384.66	0.0000
384.79	0.0000
384.93	0.0000
385.06	0.0000
385.19	0.0000
385.33	0.0000
385.46	0.0000
385.59	0.0000
385.72	0.0000
385.86	0.0000
385.99	0.0000
386.12	0.0000
386.25	0.0000
386.39	0.0000
386.52	0.0000
386.65	0.0000
386.79	0.0000
386.92	0.0000
387.05	0.0000
387.18	0.0000
387.32	0.0000
387.45	0.0000
387.58	0.0000
387.71	0.0000
387.85	0.0000
387.98	0.0000
388.11	0.0000
388.25	0.0000
388.38	0.0000
388.51	0.0000
388.64	0.0000
388.78	0.0000
388.91	0.0000
389.04	0.0000
389.17	0.0000
389.31	0.0000
389.44	0.0000
389.57	0.0000
389.70	0.0000
389.84	0.0000
389.97	0.0000
390.10	0.0000
390.24	0.0000
390.37	0.0000
390.50	0.0000
390.63	0.0000
390.77	0.0000
390.90	0.0000
391.03	0.0000
391.16	0.0000
391.30	0.0000
391.43	0.0000
391.56	0.0000
391.69	0.0000
391.83	0.0000
391.96	0.0000
392.09	0.0000
392.22	0.0000
392.36	0.0000
392.49	0.0000
392.62	0.0000
392.75	0.0000
392.89	0.0000
393.02	0.0000
393.15	0.0000
393.28	0.0000
393.42	0.0000
393.55	0.0000
393.68	0.0000
393.81	0.0000
393.95	0.0000
394.08	0.0000
394.21	0.0000
394.34	0.0000
394.48	0.0000
394.61	0.0000
394.74	0.0000
394.87	0.0000
395.01	0.0000
395.14	0.0000
395.27	0.0000
395.40	0.0000
395.54	0.0000
395.67	0.0000
395.80	0.0000
395.93	0.0000
396.07	0.0000
396.20	0.0000
396.33	0.0000
396.46	0.0000
396.59	0.0000
396.73	0.0000
396.86	0.0000
396.99	0.0000
397.12	0.0000
397.26	0.0000
397.39	0.0000
397.52	0.0000
397.65	0.0000
397.79	0.0000
397.92	0.0000
398.05	0.3182
398.18	0.0000
398.32	0.0000
398.45	0.0000
398.58	0.0000
398.71	0.0000
398.84	0.0000
398.98	0.0000
399.11	0.0000
399.24	0.0000
399.37	0.0000
399.51	0.0000
399.64	0.0000
399.77	0.0000
399.90	0.0000
400.03	0.0000
400.17	0.0000
400.30	0.0000
400.43	0.0000
400.56	0.0000
400.70	0.0000
400.83	0.0000
400.96	0.0000
401.09	0.0000
401.23	0.0000
401.36	0.0000
401.49	0.0000
401.62	0.0000
401.75	9.2896
401.89	4.4324
402.02	0.8354
402.15	0.0000
402.28	0.0000
402.41	4.7387
402.55	0.0000
402.68	0.0000
402.81	2.7361
402.94	6.8829
403.08	0.0000
403.21	0.0000
403.34	9.5652
403.47	0.0000
403.60	0.0000
403.74	0.0000
403.87	0.0000
404.00	0.0000
404.13	0.0000
404.26	0.0000
404.40	0.0000
404.53	5.2500
404.66	0.0000
404.79	0.0000
404.93	15.5009
405.06	16.6132
405.19	5.7597
405.32	5.2487
405.45	9.7211
405.59	8.3114
405.72	0.0000
405.85	0.0000
405.98	10.6601
406.11	7.1031
406.25	0.0000
406.38	13.4277
406.51	15.7079
406.64	12.7383
406.77	5.3115
406.91	12.9345
407.04	17.3963
407.17	17.2939
407.30	4.1575
407.43	4.8835
407.57	12.1874
407.70	14.1427
407.83	12.4693
407.96	9.9727
408.09	23.2327
408.23	26.0778
408.36	6.6025
408.49	1.8810
408.62	22.7759
408.75	17.1472
408.89	10.0872
409.02	13.9913
409.15	20.3397
409.28	25.3916
409.41	10.5570
409.55	12.9292
409.68	31.5317
409.81	28.1951
409.94	16.9688
410.07	30.3089
410.20	31.5013
410.34	26.3475
410.47	21.8702
410.60	24.2379
410.73	24.1396
410.86	23.9229
411.00	20.8989
411.13	24.5995
411.26	20.2994
411.39	21.6887
411.52	19.3415
411.66	23.0594
411.79	24.6014
411.92	31.4531
412.05	30.1113
412.18	26.6335
412.31	23.8764
412.45	31.5873
412.58	27.6987
412.71	18.2765
412.84	27.0191
412.97	35.2149
413.11	22.5898
413.24	11.1959
413.37	27.4396
413.50	29.9259
413.63	22.2673
413.76	25.6408
413.90	40.2931
414.03	38.1770
414.16	35.4449
414.29	27.9704
414.42	33.0233
414.56	33.2196
414.69	30.4287
414.82	25.2945
414.95	36.7800
415.08	30.5180
415.21	34.7291
415.35	29.5853
415.48	28.5307
415.61	38.5611
415.74	40.7483
415.87	20.7859
416.00	28.4665
416.14	39.2995
416.27	29.7229
416.40	23.9538
416.53	35.1612
416.66	39.2633
416.79	30.2579
416.93	29.1582
417.06	35.8776
417.19	40.3676
417.32	39.6201
417.45	34.3364
417.58	38.9304
417.72	40.0734
417.85	31.3643
417.98	29.3931
418.11	39.1459
418.24	37.5544
418.37	36.5846
418.51	34.0543
418.64	33.2910
418.77	39.3747
418.90	35.6115
419.03	31.5764
419.16	43.8841
419.29	51.4741
419.43	36.5117
419.56	36.8464
419.69	48.0671
419.82	46.5226
419.95	36.2844
420.08	37.2395
420.22	40.3152
420.35	38.1147
420.48	41.2104
420.61	38.1884
420.74	49.5921
420.87	54.2489
421.00	48.5441
421.14	36.7395
421.27	46.2873
421.40	45.9495
421.53	41.0584
421.66	41.1974
421.79	47.4510
421.93	48.8893
422.06	43.4566
422.19	41.3168
422.32	45.5469
422.45	50.9069
422.58	44.0271
422.71	42.1120
422.85	48.7397
422.98	51.2140
423.11	46.2535
423.24	47.7270
423.37	51.1630
423.50	49.9108
423.63	48.5249
423.77	45.2692
423.90	43.8112
424.03	45.9020
424.16	46.1209
424.29	43.5638
424.42	49.2714
424.55	52.4930
424.69	51.4276
424.82	52.1470
424.95	50.2809
425.08	50.9766
425.21	50.5158
425.34	48.2514
425.47	49.3766
425.60	52.5500
425.74	48.6988
425.87	46.5498
426.00	50.9357
426.13	51.1964
426.26	51.2571
426.39	46.6484
426.52	50.7344
426.66	55.9313
426.79	46.7666
426.92	41.9508
427.05	51.2772
427.18	51.5004
427.31	46.6110
427.44	49.2285
427.57	56.2603
427.71	54.9300
427.84	48.2720
427.97	46.0864
428.10	52.9294
428.23	59.7535
428.36	51.0615
428.49	49.7190
428.62	53.6342
428.76	56.8409
428.89	48.8973
429.02	48.9187
429.15	59.3192
429.28	58.9574
429.41	52.8253
429.54	48.6196
429.67	56.7824
429.81	57.6618
429.94	52.5216
430.07	46.3636
430.20	52.3740
430.33	53.8257
430.46	48.1762
430.59	53.4288
430.72	59.0933
430.85	59.6691
430.99	55.2814
431.12	54.2705
431.25	55.9894
431.38	59.7960
431.51	53.1898
431.64	52.3981
431.77	58.1641
431.90	58.2421
432.03	53.3769
432.17	56.3220
432.30	61.1626
432.43	59.5659
432.56	56.2168
432.69	54.5584
432.82	57.0135
432.95	56.5234
433.08	56.4706
433.21	56.7301
433.35	61.8148
433.48	61.5594
433.61	60.9780
433.74	57.0311
433.87	59.3406
434.00	58.8633
434.13	56.9807
434.26	54.3848
434.39	59.3585
434.53	60.5337
434.66	61.0460
434.79	59.3084
434.92	66.0392
435.05	66.5229
435.18	60.4635
435.31	58.3753
435.44	63.8274
435.57	64.2361
435.70	59.4722
435.84	57.1765
435.97	61.1922
436.10	62.5249
436.23	58.3025
436.36	60.1827
436.49	66.4427
436.62	62.4252
436.75	58.3507
436.88	58.0969
437.01	61.3602
437.14	62.6628
437.28	60.0277
437.41	58.5691
437.54	62.4278
437.67	65.0437
437.80	56.9396
437.93	57.8615
438.06	64.4404
438.19	64.0356
438.32	58.5025
438.45	61.3118
438.58	63.1401
438.72	62.1936
438.85	60.2291
438.98	58.6716
439.11	61.9495
439.24	63.6887
439.37	58.6158
439.50	59.2321
439.63	64.1334
439.76	66.4349
439.89	64.5180
440.02	63.0307
440.15	63.9490
440.29	66.0842
440.42	62.1068
440.55	58.7822
440.68	66.3262
440.81	67.6474
440.94	60.3463
441.07	62.4055
441.20	68.9557
441.33	67.1804
441.46	63.8790
441.59	68.3937
441.72	68.9098
441.85	68.2321
441.99	63.9590
442.12	63.9552
442.25	63.5070
442.38	65.2191
442.51	63.3129
442.64	64.8529
442.77	66.9906
442.90	68.3930
443.03	66.6734
443.16	63.8046
443.29	66.6963
443.42	64.9281
443.55	64.9058
443.68	65.3026
443.82	69.1862
443.95	67.8253
444.08	68.8450
444.21	67.3753
444.34	67.6239
444.47	68.5188
444.60	69.9381
444.73	65.7947
444.86	66.1154
444.99	67.8722
445.12	67.6423
445.25	63.7412
445.38	66.3829
445.51	68.6443
445.64	70.4902
445.78	65.1316
445.91	67.0108
446.04	72.0749
446.17	69.5705
446.30	65.8965
446.43	73.6690
446.56	76.2851
446.69	70.4144
446.82	68.6470
446.95	69.8518
447.08	70.2184
447.21	67.4901
447.34	68.0688
447.47	71.5057
447.60	70.5515
447.73	68.0519
447.86	69.5039
447.99	69.8503
448.13	71.1003
448.26	69.9330
448.39	68.2686
448.52	69.4181
448.65	71.2298
448.78	67.0994
448.91	69.1810
449.04	70.3822
449.17	69.9203
449.30	69.1003
449.43	68.0935
449.56	68.1998
449.69	71.7455
449.82	69.0200
449.95	67.6510
450.08	71.3809
450.21	71.7656
450.34	67.9116
450.47	70.4041
450.60	73.7210
450.73	75.0524
450.87	73.2427
451.00	69.2748
451.13	71.7726
451.26	70.6034
451.39	67.8473
451.52	67.8108
451.65	74.2593
451.78	73.9227
451.91	70.3678
452.04	69.6592
452.17	74.0684
452.30	73.5745
452.43	69.3880
452.56	74.3059
452.69	74.0823
452.82	71.4415
452.95	73.1414
453.08	73.4819
453.21	74.1135
453.34	76.5556
453.47	74.0309
453.60	71.3256
453.73	73.3185
453.86	71.5981
453.99	71.4257
454.12	72.7867
454.25	74.4171
454.38	74.9447
454.52	74.3631
454.65	74.8379
454.78	74.9862
454.91	75.5077
455.04	75.5144
455.17	72.7862
455.30	73.4880
455.43	75.6916
455.56	72.9174
455.69	71.6100
455.82	75.7356
455.95	74.8606
456.08	73.3192
456.21	75.0792
456.34	75.5193
456.47	75.6060
456.60	75.2085
456.73	74.0828
456.86	74.9076
456.99	76.0962
457.12	73.6962
457.25	72.2514
457.38	73.8344
457.51	73.9384
457.64	73.2047
457.77	74.8217
457.90	76.6969
458.03	76.9131
458.16	74.6940
458.29	75.2725
458.42	76.8588
458.55	78.0480
458.68	75.7166
458.81	73.5362
458.94	75.2104
459.07	76.7756
459.20	75.2224
459.33	75.6374
459.46	79.4559
459.59	80.4381
459.72	76.4487
459.85	76.5116
459.98	79.7570
460.11	81.8785
460.24	77.3329
460.37	78.3306
460.50	80.5023
460.63	79.8241
460.76	76.2683
460.89	77.8700
461.02	78.9277
461.15	78.1233
461.28	75.2219
461.41	78.2123
461.54	79.5822
461.67	78.4875
461.80	77.7494
461.93	78.6028
462.06	78.1390
462.19	78.7750
462.32	77.8273
462.45	78.0823
462.58	79.9693
462.71	80.5730
462.84	79.0113
462.97	79.7599
463.10	79.5407
463.23	79.1079
463.36	78.6607
463.49	77.6301
463.62	78.6726
463.75	79.3062
463.88	80.7283
464.01	77.6262
464.14	79.7931
464.27	81.0104
464.40	79.8877
464.53	78.7051
464.66	80.9106
464.79	81.0574
464.92	79.3203
465.05	79.3448
465.18	79.0019
465.31	80.1674
465.44	80.3401
465.57	78.6845
465.70	81.0600
465.83	83.4170
465.96	80.8771
466.09	79.5488
466.22	82.8284
466.35	82.8346
466.48	81.1931
466.61	81.4164
466.74	81.6204
466.87	80.8971
467.00	78.7189
467.13	79.6114
467.26	82.5954
467.39	83.0577
467.52	81.0965
467.65	82.2969
467.78	81.8645
467.91	80.9227
468.04	80.6673
468.17	82.4310
468.30	82.9284
468.43	82.8408
468.56	81.4929
468.69	81.8928
468.82	82.2695
468.95	82.2127
469.08	82.4869
469.21	82.0705
469.34	81.7979
469.47	83.0866
469.60	83.1945
469.73	82.6241
469.86	85.1909
469.99	85.8278
470.11	83.5765
470.24	83.2392
470.37	84.3345
470.50	84.1024
470.63	82.9230
470.76	82.0287
470.89	83.1399
471.02	83.8733
471.15	81.6265
471.28	81.9001
471.41	85.0669
471.54	85.8094
471.67	83.3750
471.80	84.4625
471.93	86.0632
472.06	86.1186
472.19	82.8924
472.32	83.0842
472.45	84.0085
472.58	83.2980
472.71	82.4688
472.84	84.6613
472.97	85.0565
473.10	85.6276
473.23	84.9716
473.36	84.3204
473.49	84.2422
473.62	84.5314
473.74	83.9451
473.87	84.7098
474.00	84.5165
474.13	83.8448
474.26	84.4345
474.39	84.2835
474.52	83.8911
474.65	86.0354
474.78	86.9172
474.91	84.8571
475.04	85.1709
475.17	85.7870
475.30	83.5984
475.43	83.3124
475.56	85.0576
475.69	85.5036
475.82	84.6163
475.95	85.8578
476.08	86.0361
476.21	86.1859
476.34	84.8937
476.46	85.7645
476.59	85.8790
476.72	86.6080
476.85	85.7194
476.98	86.4376
477.11	87.2805
477.24	87.1159
477.37	86.0272
477.50	87.3160
477.63	88.1989
477.76	87.5886
477.89	86.7985
478.02	86.9317
478.15	86.3152
478.28	86.1056
478.41	85.6825
478.54	86.3173
478.66	86.9572
478.79	87.4215
478.92	87.0374
479.05	87.4214
479.18	87.5456
479.31	87.6331
479.44	88.0886
479.57	87.3426
479.70	87.7243
479.83	88.2250
479.96	87.0526
480.09	85.9524
480.22	86.9090
480.35	86.8703
480.48	86.8603
480.60	87.5876
480.73	88.2676
480.86	88.5772
480.99	88.2892
481.12	86.8361
481.25	87.4419
481.38	87.6849
481.51	87.1456
481.64	87.2716
481.77	88.4274
481.90	88.3140
482.03	87.2499
482.16	87.4372
482.29	87.2475
482.41	87.5278
482.54	87.2436
482.67	88.0146
482.80	88.7095
482.93	88.9412
483.06	88.3426
483.19	88.8389
483.32	88.9246
483.45	88.3043
483.58	87.5956
483.71	87.4708
483.84	87.2265
483.97	87.3282
484.09	86.9053
484.22	87.6538
484.35	88.0090
484.48	87.9485
484.61	87.5530
484.74	88.3062
484.87	88.2176
485.00	88.4971
485.13	88.3926
485.26	89.3340
485.39	88.2589
485.52	88.4505
485.64	88.3082
485.77	88.8415
485.90	88.3289
486.03	89.0851
486.16	88.6933
486.29	88.2916
486.42	87.8794
486.55	87.6123
486.68	87.5061
486.81	87.8490
486.94	88.1810
487.06	87.9551
487.19	88.4705
487.32	88.6011
487.45	88.5182
487.58	89.4141
487.71	89.4391
487.84	89.1213
487.97	89.5500
488.10	90.1610
488.23	89.2623
488.35	89.5944
488.48	89.7406
488.61	89.3821
488.74	89.2271
488.87	88.5611
489.00	88.6816
489.13	88.6989
489.26	88.4600
489.39	87.9678
489.52	88.6001
489.64	88.2826
489.77	88.4036
489.90	88.7301
490.03	88.9748
490.16	89.2984
490.29	89.0383
490.42	89.1632
490.55	89.0966
490.68	89.5788
490.81	88.7694
490.93	88.7471
491.06	88.7789
491.19	88.4714
491.32	88.2868
491.45	88.7405
491.58	89.1051
491.71	89.3420
491.84	89.1897
491.97	88.7028
492.09	89.3023
492.22	89.2274
492.35	88.8178
492.48	89.0499
492.61	88.8821
492.74	88.5494
492.87	88.9278
493.00	88.8904
493.12	89.0144
493.25	89.7840
493.38	89.9641
493.51	89.6786
493.64	89.8634
493.77	90.2211
493.90	89.5440
494.03	89.0106
494.16	89.7442
494.28	90.2632
494.41	89.4227
494.54	89.3534
494.67	89.6581
494.80	89.3262
494.93	88.8817
495.06	89.0896
495.19	89.6184
495.31	89.9178
495.44	89.3553
495.57	89.0519
495.70	89.8006
495.83	89.9456
495.96	89.3438
496.09	89.1732
496.22	89.9138
496.34	89.5724
496.47	88.9341
496.60	89.0501
496.73	89.9535
496.86	89.5291
496.99	90.1063
497.12	90.3824
497.24	90.4252
497.37	89.9445
497.50	90.0981
497.63	89.2616
497.76	89.4703
497.89	90.4625
498.02	90.8208
498.15	90.6350
498.27	90.8944
498.40	91.0546
498.53	90.3147
498.66	90.2937
498.79	90.3366
498.92	90.4892
499.05	89.9370
499.17	89.2495
499.30	89.1249
499.43	89.5735
499.56	89.1482
499.69	89.2197
499.82	90.0921
499.95	90.2256
500.07	89.6494
500.20	89.5557
500.33	90.0050
500.46	89.9240
500.59	89.6462
500.72	89.4715
500.85	89.7942
500.97	90.1590
501.10	90.1338
501.23	89.5427
501.36	89.8423
501.49	90.5852
501.62	89.9308
501.75	90.3017
501.87	91.0706
502.00	90.9215
502.13	90.4133
502.26	90.5659
502.39	90.6304
502.52	90.9728
502.64	90.7807
502.77	90.9791
502.90	91.4785
503.03	91.4905
503.16	90.7219
503.29	90.8153
503.42	90.6663
503.54	89.7109
503.67	88.9091
503.80	89.7716
503.93	90.1478
504.06	89.6547
504.19	89.9979
504.31	90.3415
504.44	90.0262
504.57	90.3952
504.70	90.8143
504.83	91.2641
504.96	91.5177
505.08	90.8576
505.21	90.4769
505.34	90.5273
505.47	90.5042
505.60	90.3718
505.73	90.3838
505.85	90.2644
505.98	90.6260
506.11	90.7330
506.24	90.9545
506.37	91.1716
506.50	91.3951
506.62	90.9967
506.75	90.4726
506.88	90.2665
507.01	90.3748
507.14	90.1143
507.27	90.1688
507.39	90.3059
507.52	90.2221
507.65	90.7326
507.78	90.6256
507.91	90.2956
508.04	90.3901
508.16	90.5603
508.29	90.4080
508.42	90.7007
508.55	90.8354
508.68	90.9198
508.81	91.2392
508.93	91.0324
509.06	90.9774
509.19	91.3039
509.32	91.0605
509.45	90.8253
509.57	90.8767
509.70	91.0548
509.83	91.0552
509.96	91.1507
510.09	90.8594
510.22	90.9116
510.34	90.3435
510.47	90.3627
510.60	90.4754
510.73	90.9020
510.86	91.0275
510.98	91.0853
511.11	90.8324
511.24	91.0402
511.37	90.6399
511.50	90.4361
511.63	90.9604
511.75	91.1570
511.88	91.0653
512.01	91.2411
512.14	91.4937
512.27	91.5204
512.39	91.2146
512.52	91.2418
512.65	91.4147
512.78	91.3697
512.91	91.1768
513.03	91.4466
513.16	91.4114
513.29	91.3635
513.42	90.8657
513.55	91.0726
513.67	91.1486
513.80	90.8721
513.93	90.6643
514.06	91.1211
514.19	91.0628
514.31	91.1857
514.44	91.4119
514.57	91.2257
514.70	91.4725
514.83	91.5435
514.95	91.1134
515.08	90.9250
515.21	91.2385
515.34	91.0987
515.47	90.8954
515.59	91.3597
515.72	91.1939
515.85	91.4257
515.98	91.1961
516.11	91.3219
516.23	91.1668
516.36	91.6017
516.49	90.8590
516.62	90.7489
516.75	91.0277
516.87	91.0543
517.00	90.3911
517.13	90.6792
517.26	91.4080
517.39	91.0387
517.51	90.5736
517.64	91.2898
517.77	91.3443
517.90	90.8937
518.02	91.4908
518.15	91.8043
518.28	91.5299
518.41	91.7492
518.54	91.9361
518.66	91.4644
518.79	91.5977
518.92	91.8292
519.05	91.2740
519.18	91.0356
519.30	91.2087
519.43	91.1037
519.56	90.5323
519.69	90.9891
519.81	91.3930
519.94	91.2160
520.07	91.1505
520.20	91.2453
520.33	91.5560
520.45	91.2315
520.58	90.9910
520.71	91.1413
520.84	91.5731
520.96	91.5804
521.09	91.3128
521.22	91.3835
521.35	91.7050
521.48	91.9208
521.60	91.2881
521.73	90.6901
521.86	90.8616
521.99	90.5950
522.11	90.2480
522.24	90.3402
522.37	91.0296
522.50	91.4133
522.62	91.2363
522.75	91.4399
522.88	91.8956
523.01	91.8662
523.14	91.2471
523.26	91.7450
523.39	91.2274
523.52	91.3046
523.65	91.2826
523.77	91.6063
523.90	91.4261
524.03	92.1946
524.16	91.9845
524.28	92.0734
524.41	92.5210
524.54	92.3001
524.67	91.8131
524.79	91.5054
524.92	91.9287
525.05	91.5235
525.18	91.7819
525.31	91.2046
525.43	91.3258
525.56	91.6358
525.69	91.3645
525.82	91.0238
525.94	91.6816
526.07	91.9524
526.20	91.0935
526.33	91.1547
526.45	91.6338
526.58	91.7097
526.71	91.4590
526.84	91.7271
526.96	91.6110
527.09	91.1237
527.22	91.2963
527.35	91.3242
527.47	91.4926
527.60	91.6264
527.73	91.7494
527.86	91.4133
527.98	91.5785
528.11	91.3987
528.24	91.7061
528.37	91.5194
528.49	91.5657
528.62	91.6341
528.75	91.6192
528.88	91.0701
529.00	91.6822
529.13	91.9834
529.26	91.4047
529.39	91.2887
529.51	91.8057
529.64	91.5331
529.77	91.1363
529.90	91.5761
530.02	91.9998
530.15	91.9790
530.28	92.0307
530.40	92.3251
530.53	92.5291
530.66	92.4612
530.79	92.4542
530.91	92.1665
531.04	92.0099
531.17	91.8487
531.30	91.7781
531.42	91.3020
531.55	91.7438
531.68	91.8602
531.81	91.5825
531.93	91.8263
532.06	92.2813
532.19	92.0676
532.31	91.8528
532.44	92.0877
532.57	91.7067
532.70	91.6658
532.82	91.3880
532.95	91.3352
533.08	91.5496
533.21	91.7081
533.33	91.6639
533.46	91.4538
533.59	91.8585
533.71	91.8911
533.84	91.9657
533.97	92.0033
534.10	92.4889
534.22	92.2806
534.35	91.8365
534.48	91.9822
534.61	92.0942
534.73	92.0964
534.86	91.6918
534.99	91.8556
535.11	91.8211
535.24	91.9301
535.37	91.8611
535.50	92.0896
535.62	92.3718
535.75	92.2726
535.88	91.9528
536.00	91.9875
536.13	92.2760
536.26	92.3712
536.39	91.9881
536.51	92.1639
536.64	92.3608
536.77	92.2337
536.89	91.7701
537.02	91.9692
537.15	92.1692
537.28	92.0256
537.40	91.8381
537.53	91.7063
537.66	91.8315
537.78	91.8910
537.91	91.9537
538.04	92.4931
538.17	92.5505
538.29	92.1816
538.42	91.9287
538.55	92.0184
538.67	91.6899
538.80	92.0062
538.93	91.8750
539.05	91.8555
539.18	91.7641
539.31	92.1750
539.44	92.1217
539.56	92.5446
539.69	92.5891
539.82	92.5689
539.94	91.8299
540.07	91.7708
540.20	91.9508
540.32	91.9911
540.45	91.6677
540.58	92.2245
540.71	92.3404
540.83	92.1457
540.96	91.8645
541.09	91.7815
541.21	91.8680
541.34	92.0171
541.47	91.5183
541.59	91.2858
541.72	91.7798
541.85	91.7207
541.98	91.5600
542.10	91.8163
542.23	92.5682
542.36	92.4330
542.48	92.4401
542.61	92.3634
542.74	92.4603
542.86	92.4148
542.99	92.2599
543.12	92.2780
543.24	92.2817
543.37	92.4020
543.50	92.0323
543.62	92.2123
543.75	92.1427
543.88	92.2892
544.01	92.0232
544.13	92.2243
544.26	92.1491
544.39	91.9928
544.51	91.8107
544.64	92.2782
544.77	92.2026
544.89	92.3773
545.02	92.2951
545.15	92.4026
545.27	92.3711
545.40	92.1842
545.53	92.2389
545.65	92.2978
545.78	92.2983
545.91	92.0066
546.03	92.2765
546.16	92.2522
546.29	92.4283
546.41	92.6794
546.54	92.8058
546.67	92.4639
546.79	92.4970
546.92	92.3799
547.05	91.9460
547.17	91.8189
547.30	92.1979
547.43	91.7900
547.56	91.7609
547.68	91.7326
547.81	91.8945
547.94	91.9102
548.06	92.1835
548.19	92.4069
548.32	92.6910
548.44	92.7127
548.57	92.4632
548.70	92.6784
548.82	92.7328
548.95	92.8284
549.08	92.5661
549.20	92.5238
549.33	92.4676
549.45	92.4141
549.58	92.0610
549.71	92.4234
549.83	92.4327
549.96	92.3256
550.09	92.0241
550.21	92.4474
550.34	92.2688
550.47	92.6601
550.59	92.4026
550.72	92.3746
550.85	92.4320
550.97	92.5955
551.10	91.9425
551.23	92.0233
551.35	92.4044
551.48	92.0867
551.61	91.8626
