Wavelength (nm)	Reflectance (%)
377.35	0.0000
377.48	0.0000
377.62	0.0000
377.75	0.0000
377.88	0.0000
378.02	9.2381
378.15	200.0000
378.28	200.0000
378.41	0.0000
378.55	200.0000
378.68	26.6000
378.81	200.0000
378.95	200.0000
379.08	200.0000
379.21	200.0000
379.35	180.2581
379.48	200.0000
379.61	200.0000
379.74	126.7984
379.88	38.5000
380.01	70.0309
380.14	97.9499
380.28	48.8637
380.41	44.8000
380.54	130.9739
380.68	124.0693
380.81	75.9736
380.94	64.1329
381.07	94.1410
381.21	101.4099
381.34	47.9850
381.47	71.9392
381.61	129.8046
381.74	108.7246
381.87	31.1358
382.00	96.8848
382.14	121.7006
382.27	56.8324
382.40	32.8857
382.54	82.0032
382.67	90.0421
382.80	54.4426
382.93	79.1719
383.07	89.2458
383.20	82.3055
383.33	107.0158
383.47	66.9938
383.60	66.2407
383.73	94.9753
383.86	96.1990
384.00	54.6712
384.13	90.2840
384.26	101.3905
384.40	73.0411
384.53	57.3098
384.66	74.4572
384.79	92.3357
384.93	80.3735
385.06	57.6499
385.19	60.8356
385.33	66.8063
385.46	44.4784
385.59	58.0312
385.72	97.1887
385.86	89.8560
385.99	84.9820
386.12	87.0142
386.25	58.8203
386.39	65.6755
386.52	82.6121
386.65	78.6574
386.79	60.5230
386.92	97.0860
387.05	106.3838
387.18	78.8761
387.32	68.4076
387.45	107.2199
387.58	96.9101
387.71	79.2584
387.85	87.3417
387.98	87.9675
388.11	89.4061
388.25	77.7204
388.38	65.4742
388.51	75.0773
388.64	96.5393
388.78	97.2299
388.91	71.2888
389.04	95.0345
389.17	89.4263
389.31	55.9894
389.44	46.7399
389.57	78.9024
389.70	74.2290
389.84	78.1393
389.97	80.6036
390.10	85.6852
390.24	87.8259
390.37	65.3502
390.50	63.5510
390.63	70.0769
390.77	62.9640
390.90	65.9205
391.03	84.8128
391.16	77.9281
391.30	81.1101
391.43	96.5640
391.56	75.3177
391.69	78.2455
391.83	95.4077
391.96	71.7856
392.09	59.8195
392.22	87.2075
392.36	90.9342
392.49	62.5525
392.62	68.5240
392.75	79.8895
392.89	76.1699
393.02	79.7194
393.15	66.4520
393.28	86.0214
393.42	74.5753
393.55	72.9934
393.68	60.6445
393.81	85.1664
393.95	85.3635
394.08	82.6629
394.21	74.9897
394.34	74.9808
394.48	77.4873
394.61	68.1566
394.74	74.5250
394.87	73.3257
395.01	92.7233
395.14	77.9713
395.27	67.1302
395.40	75.2769
395.54	81.9024
395.67	59.6324
395.80	72.8735
395.93	88.3177
396.07	87.5472
396.20	82.2339
396.33	84.2940
396.46	87.0069
396.59	94.4452
396.73	76.7128
396.86	76.7549
396.99	94.4243
397.12	111.5911
397.26	62.3571
397.39	66.4828
397.52	84.6187
397.65	78.2694
397.79	49.4185
397.92	94.5173
398.05	108.4631
398.18	86.7674
398.32	76.8188
398.45	84.4134
398.58	87.9167
398.71	80.6031
398.84	78.3188
398.98	77.3186
399.11	82.1875
399.24	78.7595
399.37	78.9782
399.51	84.4394
399.64	86.1756
399.77	84.4180
399.90	89.6875
400.03	80.5859
400.17	75.4568
400.30	79.8851
400.43	78.7211
400.56	71.9849
400.70	87.4237
400.83	92.9322
400.96	90.6270
401.09	84.4352
401.23	85.1698
401.36	77.1685
401.49	76.8084
401.62	79.6819
401.75	87.2175
401.89	82.4233
402.02	81.7324
402.15	82.4230
402.28	85.0162
402.41	89.5083
402.55	80.2070
402.68	78.1524
402.81	85.4129
402.94	88.8780
403.08	77.7865
403.21	81.9775
403.34	92.1369
403.47	82.7255
403.60	70.8238
403.74	81.2253
403.87	86.6702
404.00	85.6815
404.13	93.4499
404.26	93.9382
404.40	89.8637
404.53	96.4566
404.66	85.1867
404.79	79.3231
404.93	92.3375
405.06	90.1037
405.19	81.0175
405.32	83.3645
405.45	91.7194
405.59	93.2383
405.72	70.1979
405.85	80.4028
405.98	93.4020
406.11	87.3124
406.25	71.4719
406.38	94.4503
406.51	93.0059
406.64	88.3322
406.77	84.4728
406.91	93.4545
407.04	94.9753
407.17	92.6403
407.30	81.3958
407.43	80.9359
407.57	86.1191
407.70	88.7684
407.83	91.2968
407.96	89.6948
408.09	100.0911
408.23	102.2442
408.36	84.6223
408.49	80.4997
408.62	98.2922
408.75	92.1779
408.89	85.9728
409.02	93.4676
409.15	93.5735
409.28	96.3760
409.41	84.0871
409.55	83.0000
409.68	96.4829
409.81	93.6068
409.94	83.1172
410.07	99.2618
410.20	100.4117
410.34	93.9060
410.47	92.1953
410.60	97.5881
410.73	93.0870
410.86	95.2323
411.00	96.5373
411.13	100.3492
411.26	93.7318
411.39	95.4932
411.52	93.3910
411.66	95.7036
411.79	94.3195
411.92	99.8164
412.05	100.0445
412.18	95.6769
412.31	90.0069
412.45	99.5669
412.58	98.6499
412.71	90.3147
412.84	98.4265
412.97	105.2045
413.11	97.1101
413.24	87.1976
413.37	98.4718
413.50	100.0848
413.63	93.9129
413.76	93.5633
413.90	105.1085
414.03	102.2119
414.16	98.4380
414.29	91.0999
414.42	96.4182
414.56	94.3150
414.69	94.3234
414.82	91.8219
414.95	101.1215
415.08	94.4911
415.21	103.0294
415.35	100.0161
415.48	96.2983
415.61	106.2200
415.74	110.2832
415.87	88.9433
416.00	93.8982
416.14	105.4985
416.27	98.0246
416.40	95.0503
416.53	108.2608
416.66	112.0270
416.79	102.6287
416.93	100.4437
417.06	102.8446
417.19	103.8287
417.32	104.6950
417.45	101.1341
417.58	102.3963
417.72	102.4765
417.85	96.2445
417.98	94.5576
418.11	102.2818
418.24	101.9570
418.37	102.9687
418.51	101.2634
418.64	98.0616
418.77	103.6335
418.90	104.1630
419.03	97.1968
419.16	108.1975
419.29	115.3498
419.43	97.8675
419.56	96.1342
419.69	107.1781
419.82	104.8902
419.95	99.1576
420.08	103.5545
420.22	103.4628
420.35	99.6849
420.48	104.2850
420.61	98.4488
420.74	108.4796
420.87	113.4300
421.00	109.4796
421.14	98.2951
421.27	103.4529
421.40	102.3946
421.53	101.5354
421.66	105.3343
421.79	110.5273
421.93	115.1662
422.06	111.1885
422.19	108.4311
422.32	109.0392
422.45	112.8155
422.58	105.2140
422.71	102.1517
422.85	106.2841
422.98	107.4325
423.11	104.9726
423.24	107.3822
423.37	109.9499
423.50	107.7490
423.63	107.0573
423.77	104.7514
423.90	101.3457
424.03	103.4176
424.16	107.2577
424.29	107.9187
424.42	111.3987
424.55	113.1244
424.69	112.7355
424.82	113.3842
424.95	108.6028
425.08	107.4651
425.21	110.1679
425.34	109.3836
425.47	108.1236
425.60	111.2964
425.74	110.4025
425.87	107.9501
426.00	110.1460
426.13	109.1374
426.26	109.4441
426.39	105.2051
426.52	107.9633
426.66	111.9794
426.79	102.9222
426.92	98.7623
427.05	105.2839
427.18	105.9138
427.31	102.3144
427.44	107.4002
427.57	113.1730
427.71	110.8431
427.84	104.3686
427.97	101.5606
428.10	107.2727
428.23	112.8248
428.36	105.7858
428.49	105.0218
428.62	108.7186
428.76	110.5826
428.89	102.8154
429.02	103.5412
429.15	110.3965
429.28	109.9936
429.41	106.2508
429.54	104.2040
429.67	111.4212
429.81	113.3901
429.94	108.1525
430.07	100.8589
430.20	104.4043
430.33	104.3648
430.46	101.2335
430.59	106.9563
430.72	111.3484
430.85	112.4442
430.99	108.7507
431.12	105.0609
431.25	105.7798
431.38	109.5050
431.51	102.5617
431.64	102.9553
431.77	108.4248
431.90	109.6793
432.03	106.9382
432.17	110.1687
432.30	114.4416
432.43	112.7506
432.56	109.5459
432.69	107.0008
432.82	109.1214
432.95	107.7293
433.08	108.4699
433.21	108.2842
433.35	112.6618
433.48	111.3819
433.61	112.7216
433.74	109.7630
433.87	112.3862
434.00	111.0739
434.13	110.4887
434.26	107.3260
434.39	110.7823
434.53	108.9248
434.66	110.3804
434.79	106.1127
434.92	110.0778
435.05	109.8746
435.18	104.6286
435.31	102.4190
435.44	108.3174
435.57	110.0325
435.70	107.6410
435.84	105.7568
435.97	108.3903
436.10	109.3825
436.23	104.8337
436.36	104.4734
436.49	110.4518
436.62	107.2065
436.75	105.0744
436.88	105.8328
437.01	110.1598
437.14	110.7969
437.28	107.8190
437.41	105.3074
437.54	108.2353
437.67	110.0278
437.80	101.6244
437.93	102.5911
438.06	109.5162
438.19	109.2553
438.32	104.3732
438.45	108.6079
438.58	111.0137
438.72	109.5184
438.85	107.1100
438.98	106.3192
439.11	108.6492
439.24	108.8591
439.37	104.5227
439.50	106.3672
439.63	109.5363
439.76	110.9718
439.89	110.8754
440.02	109.9327
440.15	109.6229
440.29	111.0347
440.42	108.5860
440.55	105.0796
440.68	111.1989
440.81	112.6005
440.94	106.0230
441.07	106.9888
441.20	112.3636
441.33	109.1099
441.46	106.3274
441.59	110.4622
441.72	111.5162
441.85	109.4300
441.99	106.4592
442.12	105.9549
442.25	106.1203
442.38	108.3423
442.51	108.2058
442.64	110.3798
442.77	112.0052
442.90	112.5492
443.03	109.8699
443.16	106.8918
443.29	108.3535
443.42	106.3952
443.55	105.8208
443.68	105.7980
443.82	109.5319
443.95	106.7870
444.08	107.9976
444.21	107.0988
444.34	107.3918
444.47	107.0570
444.60	109.8356
444.73	107.3479
444.86	107.5767
444.99	108.2038
445.12	109.6383
445.25	107.4272
445.38	108.8669
445.51	111.0746
445.64	114.4592
445.78	107.8207
445.91	106.6377
446.04	110.9857
446.17	107.6557
446.30	102.6399
446.43	109.3556
446.56	112.1287
446.69	106.4148
446.82	105.1975
446.95	107.0995
447.08	107.6629
447.21	105.8874
447.34	106.9514
447.47	109.6896
447.60	107.5028
447.73	106.5456
447.86	108.2973
447.99	108.6110
448.13	109.8004
448.26	109.9043
448.39	107.4302
448.52	107.8417
448.65	108.3212
448.78	105.3045
448.91	108.1116
449.04	108.5189
449.17	107.5423
449.30	108.8782
449.43	107.9396
449.56	106.3532
449.69	110.4056
449.82	109.0358
449.95	106.5290
450.08	109.3163
450.21	110.3309
450.34	106.7863
450.47	109.1282
450.60	112.0007
450.73	113.5369
450.87	112.1596
451.00	107.2290
451.13	107.9832
451.26	106.1151
451.39	104.0940
451.52	104.4325
451.65	110.2049
451.78	111.0541
451.91	108.7604
452.04	106.6693
452.17	108.9786
452.30	109.3186
452.43	104.9984
452.56	109.5934
452.69	109.1147
452.82	107.0613
452.95	108.3493
453.08	107.6477
453.21	106.7743
453.34	108.9479
453.47	105.8455
453.60	103.4435
453.73	106.0995
453.86	104.3651
453.99	105.1188
454.12	107.5001
454.25	109.1365
454.38	108.3234
454.52	109.0315
454.65	109.4893
454.78	109.0765
454.91	108.1974
455.04	109.8303
455.17	106.7952
455.30	106.7379
455.43	109.3298
455.56	107.7593
455.69	105.3558
455.82	109.2717
455.95	108.7619
456.08	107.6571
456.21	109.3799
456.34	109.9160
456.47	109.2811
456.60	109.2602
456.73	107.0924
456.86	106.7688
456.99	107.7651
457.12	105.3991
457.25	104.1307
457.38	104.9873
457.51	105.0773
457.64	104.7416
457.77	106.5720
457.90	107.3884
458.03	107.8313
458.16	106.8343
458.29	107.2851
458.42	107.8720
458.55	108.7071
458.68	107.0126
458.81	104.0358
458.94	105.8369
459.07	107.0943
459.20	105.8420
459.33	104.6324
459.46	107.6168
459.59	107.6837
459.72	104.3591
459.85	103.7220
459.98	106.7451
460.11	108.4647
460.24	104.6525
460.37	105.7437
460.50	107.7576
460.63	107.9405
460.76	105.2320
460.89	106.3263
461.02	107.8658
461.15	107.4117
461.28	104.5202
461.41	106.8322
461.54	107.7664
461.67	105.8972
461.80	105.9404
461.93	107.0996
462.06	106.7692
462.19	107.8063
462.32	107.0270
462.45	107.0339
462.58	107.8369
462.71	108.4007
462.84	106.5688
462.97	107.1097
463.10	106.0673
463.23	106.2419
463.36	106.6565
463.49	106.5909
463.62	107.1260
463.75	107.8239
463.88	109.6072
464.01	105.3906
464.14	106.5249
464.27	107.7511
464.40	106.7415
464.53	104.9317
464.66	106.7571
464.79	107.0496
464.92	106.0959
465.05	106.5061
465.18	106.7319
465.31	108.2265
465.44	108.0617
465.57	105.2945
465.70	106.0839
465.83	107.7659
465.96	106.1311
466.09	104.9991
466.22	108.4039
466.35	108.5844
466.48	107.0678
466.61	107.1642
466.74	106.6441
466.87	105.5563
467.00	104.0978
467.13	105.0708
467.26	106.9183
467.39	108.0207
467.52	106.6472
467.65	107.7860
467.78	106.6290
467.91	105.1436
468.04	104.8131
468.17	107.0891
468.30	107.1784
468.43	106.7236
468.56	106.2262
468.69	107.7579
468.82	107.4790
468.95	107.5941
469.08	108.8746
469.21	108.3621
469.34	106.0959
469.47	107.0262
469.60	106.7889
469.73	105.4980
469.86	108.3498
469.99	109.6518
470.11	107.5125
470.24	107.2244
470.37	108.4764
470.50	107.8372
470.63	106.7945
470.76	106.3111
470.89	107.8265
471.02	108.1143
471.15	105.6529
471.28	105.0146
471.41	107.0224
471.54	107.1083
471.67	104.8979
471.80	105.8099
471.93	107.4911
472.06	108.1456
472.19	105.0960
472.32	105.5749
472.45	106.5881
472.58	106.1399
472.71	105.3119
472.84	107.4792
472.97	107.0937
473.10	107.5770
473.23	106.3423
473.36	105.5016
473.49	104.9005
473.62	105.3611
473.74	104.8568
473.87	106.7144
474.00	106.9062
474.13	106.4665
474.26	107.0722
474.39	106.8952
474.52	105.5296
474.65	106.8992
474.78	107.8771
474.91	106.0878
475.04	105.8196
475.17	106.7076
475.30	105.1421
475.43	104.8697
475.56	106.6199
475.69	107.7718
475.82	106.9310
475.95	108.0117
476.08	108.2512
476.21	108.1559
476.34	106.4936
476.46	107.5732
476.59	107.2198
476.72	107.4283
476.85	106.2471
476.98	106.3062
477.11	106.6887
477.24	106.1632
477.37	104.9995
477.50	106.1406
477.63	106.8415
477.76	106.2867
477.89	106.0125
478.02	106.2141
478.15	106.3323
478.28	106.7628
478.41	105.5229
478.54	106.2034
478.66	106.4904
478.79	106.2526
478.92	105.4769
479.05	106.3958
479.18	105.7072
479.31	105.9903
479.44	105.9324
479.57	106.0152
479.70	106.8643
479.83	107.8011
479.96	106.0946
480.09	105.6537
480.22	105.9873
480.35	105.2488
480.48	104.9634
480.60	105.6435
480.73	106.2651
480.86	106.4025
480.99	106.1624
481.12	105.1710
481.25	106.4664
481.38	106.5251
481.51	105.6363
481.64	105.7647
481.77	106.8070
481.90	106.3797
482.03	105.3839
482.16	106.0066
482.29	106.1241
482.41	106.4377
482.54	106.5252
482.67	107.1095
482.80	107.6274
482.93	107.0234
483.06	106.3080
483.19	106.4244
483.32	106.7867
483.45	105.9785
483.58	105.8603
483.71	105.7159
483.84	105.3600
483.97	105.1038
484.09	105.1782
484.22	105.8984
484.35	106.0821
484.48	105.8010
484.61	105.7797
484.74	106.1046
484.87	105.8490
485.00	106.1999
485.13	106.3639
485.26	106.9549
485.39	106.0759
485.52	105.7555
485.64	105.1514
485.77	105.6365
485.90	105.1771
486.03	106.2314
486.16	106.3396
486.29	106.5162
486.42	106.4253
486.55	106.0092
486.68	105.4295
486.81	106.0688
486.94	105.9650
487.06	105.2477
487.19	105.5636
487.32	105.8692
487.45	105.2624
487.58	105.7781
487.71	106.0326
487.84	105.6893
487.97	105.4678
488.10	106.0468
488.23	105.3574
488.35	105.7236
488.48	106.2380
488.61	106.5040
488.74	106.1576
488.87	105.8110
489.00	105.7124
489.13	105.8351
489.26	105.6254
489.39	105.4920
489.52	106.1895
489.64	105.9418
489.77	105.6087
489.90	105.3403
490.03	105.4754
490.16	105.6841
490.29	105.3044
490.42	105.6116
490.55	105.7047
490.68	106.2076
490.81	105.2891
490.93	105.5788
491.06	105.4547
491.19	105.2186
491.32	104.8722
491.45	105.3621
491.58	105.6169
491.71	105.7947
491.84	105.4528
491.97	105.1978
492.09	105.6217
492.22	105.2073
492.35	104.9321
492.48	105.7364
492.61	105.4706
492.74	105.1625
492.87	105.6226
493.00	105.3204
493.12	105.1342
493.25	105.7224
493.38	106.2179
493.51	105.8630
493.64	106.0640
493.77	106.1249
493.90	105.4862
494.03	104.8946
494.16	105.2687
494.28	105.7104
494.41	105.0416
494.54	105.2295
494.67	106.0227
494.80	105.8782
494.93	105.7016
495.06	106.6580
495.19	107.2402
495.31	106.9427
495.44	106.7247
495.57	106.7638
495.70	106.8113
495.83	106.6301
495.96	105.8020
496.09	105.5594
496.22	106.0214
496.34	105.7859
496.47	105.1690
496.60	105.3623
496.73	106.0469
496.86	105.1622
496.99	105.2045
497.12	105.4528
497.24	105.4017
497.37	105.1577
497.50	105.5540
497.63	104.8082
497.76	104.4887
497.89	105.5419
498.02	105.6584
498.15	105.4019
498.27	105.7689
498.40	106.2464
498.53	105.5882
498.66	105.9470
498.79	106.0257
498.92	106.1160
499.05	106.3012
499.17	105.7792
499.30	105.4179
499.43	105.9890
499.56	105.9889
499.69	105.8063
499.82	106.4857
499.95	106.6242
500.07	106.1771
500.20	105.3701
500.33	105.3627
500.46	105.5097
500.59	105.2094
500.72	104.8714
500.85	105.5080
500.97	106.0275
501.10	105.8840
501.23	105.3895
501.36	105.4681
501.49	105.8888
501.62	104.9500
501.75	105.1712
501.87	105.5971
502.00	105.5771
502.13	105.4998
502.26	105.7715
502.39	105.6401
502.52	105.5951
502.64	105.2989
502.77	105.1567
502.90	105.6271
503.03	105.4655
503.16	105.1113
503.29	105.5662
503.42	105.8554
503.54	105.7587
503.67	105.1960
503.80	106.1741
503.93	106.3090
504.06	105.5898
504.19	105.3622
504.31	105.5861
504.44	104.9781
504.57	105.1455
504.70	105.3995
504.83	105.4366
504.96	105.6604
505.08	105.0862
505.21	104.6678
505.34	104.8827
505.47	104.8476
505.60	104.8356
505.73	104.7823
505.85	105.0580
505.98	105.3024
506.11	105.2520
506.24	105.0985
506.37	105.3378
506.50	105.3096
506.62	105.0447
506.75	104.7490
506.88	105.2008
507.01	105.5435
507.14	105.4936
507.27	105.5116
507.39	106.0140
507.52	105.3223
507.65	105.5990
507.78	105.3103
507.91	105.1045
508.04	104.7798
508.16	105.0791
508.29	105.2593
508.42	105.6221
508.55	105.1395
508.68	105.3030
508.81	105.3965
508.93	104.8762
509.06	104.5543
509.19	105.2325
509.32	104.9005
509.45	104.9183
509.57	104.9589
509.70	105.0955
509.83	104.8963
509.96	105.0859
510.09	105.0025
510.22	105.1992
510.34	104.7678
510.47	104.8793
510.60	104.8429
510.73	104.7176
510.86	104.6324
510.98	104.7600
511.11	104.5508
511.24	104.7336
511.37	104.8600
511.50	104.7630
511.63	105.0258
511.75	105.0664
511.88	104.9322
512.01	104.8520
512.14	104.9041
512.27	104.9188
512.39	104.8919
512.52	104.9056
512.65	104.9301
512.78	104.6714
512.91	104.3845
513.03	104.2064
513.16	104.2283
513.29	104.0192
513.42	103.8987
513.55	104.3481
513.67	104.7738
513.80	104.4694
513.93	104.3199
514.06	104.5961
514.19	104.1087
514.31	104.0677
514.44	104.0628
514.57	103.8883
514.70	104.0960
514.83	104.4451
514.95	104.2583
515.08	104.4343
515.21	104.8848
515.34	104.9355
515.47	104.7616
515.59	104.7168
515.72	104.2633
515.85	104.2912
515.98	103.8569
516.11	103.6293
516.23	103.8202
516.36	104.4690
516.49	104.2142
516.62	104.1210
516.75	104.8163
516.87	104.7303
517.00	103.9720
517.13	104.1103
517.26	104.8359
517.39	104.2697
517.51	103.6997
517.64	104.4246
517.77	104.2826
517.90	103.8230
518.02	104.1294
518.15	104.3502
518.28	103.9434
518.41	103.8674
518.54	103.7850
518.66	103.6894
518.79	103.8407
518.92	103.7890
519.05	103.5806
519.18	103.5780
519.30	103.3853
519.43	103.3983
519.56	103.2935
519.69	103.7853
519.81	104.0568
519.94	104.0569
520.07	104.0416
520.20	104.1775
520.33	104.0675
520.45	103.7311
520.58	103.4598
520.71	103.3533
520.84	103.5185
520.96	103.5205
521.09	103.2271
521.22	103.1946
521.35	103.4487
521.48	103.4656
521.60	103.2218
521.73	102.9476
521.86	103.3136
521.99	103.3566
522.11	103.0196
522.24	103.2517
522.37	103.3305
522.50	103.5881
522.62	103.3331
522.75	103.5871
522.88	103.3983
523.01	103.6527
523.14	103.0189
523.26	103.3543
523.39	102.9678
523.52	103.0949
523.65	103.3195
523.77	103.4748
523.90	103.0643
524.03	103.3738
524.16	103.4370
524.28	103.3319
524.41	103.7554
524.54	103.9949
524.67	103.7374
524.79	103.3574
524.92	103.6775
525.05	103.2814
525.18	103.4614
525.31	103.1225
525.43	103.6772
525.56	103.9578
525.69	103.8578
525.82	103.4102
525.94	104.0553
526.07	103.9114
526.20	103.1280
526.33	103.1673
526.45	103.3073
526.58	103.3377
526.71	103.0077
526.84	103.3714
526.96	103.2993
527.09	103.3011
527.22	103.3746
527.35	103.1188
527.47	103.1468
527.60	103.1946
527.73	103.0449
527.86	102.9042
527.98	103.5032
528.11	103.1511
528.24	103.4188
528.37	103.4359
528.49	103.0098
528.62	103.2241
528.75	103.4971
528.88	103.2982
529.00	103.6011
529.13	104.0760
529.26	103.3157
529.39	103.0170
529.51	103.3294
529.64	103.2117
529.77	102.9031
529.90	103.2845
530.02	103.7313
530.15	103.5546
530.28	103.4871
530.40	103.5667
530.53	103.6651
530.66	103.1303
530.79	103.0432
530.91	102.8850
531.04	102.9512
531.17	102.7341
531.30	103.0036
531.42	102.5041
531.55	102.8763
531.68	103.1232
531.81	103.2027
531.93	103.5110
532.06	103.9618
532.19	103.6203
532.31	103.2936
532.44	103.5093
532.57	103.1989
532.70	103.0157
532.82	102.8305
532.95	102.6650
533.08	102.5724
533.21	102.7644
533.33	103.0127
533.46	102.8490
533.59	103.3240
533.71	103.4592
533.84	103.4345
533.97	103.3625
534.10	103.7442
534.22	103.6423
534.35	103.1846
534.48	103.1263
534.61	103.2525
534.73	103.1125
534.86	102.7847
534.99	103.0860
535.11	103.1271
535.24	103.2032
535.37	103.5388
535.50	103.5939
535.62	103.3119
535.75	103.1720
535.88	102.8286
536.00	102.4144
536.13	102.4756
536.26	102.7730
536.39	102.5884
536.51	102.8700
536.64	103.2987
536.77	103.3547
536.89	103.1741
537.02	103.4399
537.15	103.2300
537.28	103.2030
537.40	102.9820
537.53	102.9947
537.66	103.1171
537.78	103.4531
537.91	103.4453
538.04	104.1189
538.17	104.0046
538.29	103.5645
538.42	103.3326
538.55	103.4203
538.67	103.0142
538.80	103.5209
538.93	103.5930
539.05	103.5197
539.18	103.3061
539.31	103.5839
539.44	103.2006
539.56	103.4101
539.69	103.7280
539.82	103.8935
539.94	103.2804
540.07	103.3737
540.20	103.4195
540.32	103.0987
540.45	102.7026
540.58	103.2950
540.71	103.5433
540.83	103.6228
540.96	103.4698
541.09	103.5183
541.21	103.5407
541.34	103.3969
541.47	103.1202
541.59	102.9122
541.72	103.0961
