Wavelength (nm)	Reflectance (%)
377.35	0.0000
377.48	0.0000
377.62	0.0000
377.75	16.5106
377.88	0.0000
378.02	82.9524
378.15	200.0000
378.28	200.0000
378.41	61.1111
378.55	200.0000
378.68	0.0000
378.81	200.0000
378.95	200.0000
379.08	200.0000
379.21	200.0000
379.35	52.1290
379.48	167.0233
379.61	191.1448
379.74	129.7866
379.88	49.8415
380.01	81.7835
380.14	111.3166
380.28	62.5744
380.41	55.1832
380.54	134.8457
380.68	122.0728
380.81	68.6271
380.94	51.3754
381.07	79.4487
381.21	87.4386
381.34	34.3415
381.47	61.8099
381.61	125.3286
381.74	107.8986
381.87	32.7160
382.00	101.2788
382.14	128.1553
382.27	65.1860
382.40	43.7714
382.54	94.7712
382.67	103.5397
382.80	68.7587
382.93	93.4667
383.07	101.4680
383.20	91.7354
383.33	115.9685
383.47	74.9317
383.60	72.8148
383.73	100.5494
383.86	101.0547
384.00	58.2125
384.13	93.1914
384.26	105.1210
384.40	77.0594
384.53	62.5609
384.66	79.9607
384.79	96.8933
384.93	83.9621
385.06	60.6784
385.19	61.5795
385.33	65.8938
385.46	44.1113
385.59	57.7078
385.72	97.8306
385.86	92.2634
385.99	88.5270
386.12	90.0567
386.25	60.5322
386.39	64.8777
386.52	79.4934
386.65	73.3760
386.79	54.1782
386.92	90.2262
387.05	100.7301
387.18	76.2296
387.32	68.5124
387.45	109.2258
387.58	99.7101
387.71	80.3034
387.85	85.4170
387.98	83.0732
388.11	82.7111
388.25	70.6237
388.38	60.9124
388.51	73.4574
388.64	97.8429
388.78	100.0053
388.91	74.7861
389.04	98.4607
389.17	90.8474
389.31	56.3404
389.44	48.1830
389.57	82.0780
389.70	79.0602
389.84	86.6116
389.97	91.2096
390.10	96.0237
390.24	96.9459
390.37	72.6521
390.50	67.9771
390.63	72.5747
390.77	64.2613
390.90	66.3428
391.03	84.5525
391.16	77.3079
391.30	80.5154
391.43	96.0215
391.56	74.8188
391.69	78.5912
391.83	97.4678
391.96	75.7856
392.09	66.9087
392.22	96.4780
392.36	101.1866
392.49	71.5883
392.62	75.2183
392.75	82.5675
392.89	77.2418
393.02	80.7372
393.15	69.2879
393.28	90.7677
393.42	81.8031
393.55	80.5687
393.68	67.7536
393.81	90.1794
393.95	89.3861
394.08	85.6347
394.21	77.1450
394.34	76.2126
394.48	79.4836
394.61	70.2769
394.74	76.7320
394.87	75.5366
395.01	96.2478
395.14	82.5421
395.27	72.7363
395.40	81.1829
395.54	87.9146
395.67	64.8142
395.80	76.2362
395.93	89.9856
396.07	88.2959
396.20	83.1449
396.33	85.3504
396.46	88.3677
396.59	95.9583
396.73	78.1972
396.86	78.0670
396.99	95.6243
397.12	112.3911
397.26	63.2250
397.39	67.1862
397.52	85.1104
397.65	78.5118
397.79	49.8521
397.92	94.2010
398.05	107.4664
398.18	84.9034
398.32	74.0302
398.45	80.8336
398.58	84.5897
398.71	77.5029
398.84	75.5749
398.98	75.3644
399.11	81.3416
399.24	79.1385
399.37	79.9289
399.51	85.6511
399.64	87.2683
399.77	84.0032
399.90	87.8312
400.03	77.9632
400.17	71.9241
400.30	75.1522
400.43	74.3855
400.56	67.5710
400.70	83.2409
400.83	89.9579
400.96	89.6553
401.09	85.0833
401.23	87.5957
401.36	80.7820
401.49	80.7905
401.62	83.0928
401.75	89.6582
401.89	84.1278
402.02	82.7042
402.15	82.9272
402.28	85.9986
402.41	91.2646
402.55	82.3385
402.68	80.2690
402.81	88.5158
402.94	92.3568
403.08	81.3135
403.21	85.8134
403.34	96.4187
403.47	85.8637
403.60	73.1584
403.74	83.1535
403.87	88.1463
404.00	87.0007
404.13	95.2443
404.26	95.6962
404.40	90.7837
404.53	96.5819
404.66	84.5075
404.79	78.3308
404.93	91.4761
405.06	89.8938
405.19	81.0927
405.32	83.5640
405.45	91.1831
405.59	91.5799
405.72	68.0024
405.85	78.3162
405.98	91.3985
406.11	85.9138
406.25	71.1106
406.38	94.1117
406.51	91.9976
406.64	86.5848
406.77	82.0714
406.91	90.1248
407.04	91.5124
407.17	89.5009
407.30	78.9012
407.43	79.3345
407.57	85.3432
407.70	88.0755
407.83	91.0297
407.96	89.5188
408.09	99.3555
408.23	101.6142
408.36	85.0976
408.49	81.5894
408.62	99.7744
408.75	94.3057
408.89	88.0087
409.02	94.6696
409.15	94.0243
409.28	96.6973
409.41	84.3613
409.55	83.4165
409.68	97.7164
409.81	95.5770
409.94	85.2841
410.07	101.7476
410.20	103.2405
410.34	96.7257
410.47	95.0408
410.60	100.1038
410.73	94.8261
410.86	96.3778
411.00	96.6697
411.13	99.1192
411.26	91.9064
411.39	93.0583
411.52	89.8883
411.66	92.0135
411.79	90.7241
411.92	95.8396
412.05	96.4584
412.18	93.5918
412.31	88.9827
412.45	99.3898
412.58	99.8252
412.71	91.8685
412.84	99.3860
412.97	105.9248
413.11	98.0583
413.24	88.0040
413.37	99.6449
413.50	101.6047
413.63	95.2911
413.76	94.5598
413.90	105.8521
414.03	102.8960
414.16	99.0252
414.29	92.0000
414.42	97.4655
414.56	95.3843
414.69	94.7700
414.82	91.7097
414.95	100.0000
415.08	92.9167
415.21	101.3685
415.35	98.9135
415.48	96.2874
415.61	107.5780
415.74	112.3646
415.87	91.4630
416.00	96.4320
416.14	107.7279
416.27	100.0141
416.40	96.9354
416.53	110.0027
416.66	113.9252
416.79	104.9017
416.93	103.1736
417.06	106.1528
417.19	107.5210
417.32	108.0051
417.45	103.4962
417.58	103.6379
417.72	102.3015
417.85	95.3265
417.98	93.6286
418.11	101.7925
418.24	101.8925
418.37	103.9780
418.51	102.7228
418.64	98.9609
418.77	103.9208
418.90	103.9160
419.03	96.5063
419.16	107.3918
419.29	114.9541
419.43	97.7526
419.56	96.1885
419.69	106.8858
419.82	104.0908
419.95	97.9961
420.08	102.3033
420.22	102.5175
420.35	99.5080
420.48	105.0321
420.61	99.6179
420.74	109.7413
420.87	114.6757
421.00	110.2613
421.14	98.4957
421.27	103.3321
421.40	102.1672
421.53	100.7119
421.66	104.1602
421.79	108.9045
421.93	113.1174
422.06	108.7175
422.19	105.9901
422.32	106.7159
422.45	111.1435
422.58	104.3236
422.71	102.1250
422.85	106.7667
422.98	108.1959
423.11	105.4661
423.24	107.5495
423.37	109.8683
423.50	107.8222
423.63	107.4162
423.77	105.5353
423.90	102.5107
424.03	104.5852
424.16	108.1739
424.29	108.6978
424.42	112.0184
424.55	113.5679
424.69	113.0891
424.82	113.5897
424.95	108.1995
425.08	106.6732
425.21	108.7950
425.34	107.7627
425.47	106.5788
425.60	110.4389
425.74	110.1387
425.87	108.4965
426.00	111.0895
426.13	110.3198
426.26	110.5994
426.39	106.1394
426.52	108.7104
426.66	112.7992
426.79	103.8477
426.92	99.6192
427.05	106.3844
427.18	107.2388
427.31	103.6367
427.44	108.7373
427.57	115.0356
427.71	112.7821
427.84	106.4834
427.97	103.9369
428.10	109.8306
428.23	114.8212
428.36	107.5219
428.49	106.0323
428.62	109.1989
428.76	110.5607
428.89	103.0692
429.02	104.0072
429.15	111.2386
429.28	110.9776
429.41	107.1760
429.54	104.3384
429.67	111.1055
429.81	113.0006
429.94	107.9906
430.07	101.4639
430.20	106.1879
430.33	106.9836
430.46	104.4556
430.59	110.7905
430.72	115.0425
430.85	115.6958
430.99	111.4996
431.12	107.0825
431.25	107.0428
431.38	110.6648
431.51	104.0898
431.64	104.8991
431.77	110.8595
431.90	112.0607
432.03	108.8488
432.17	111.0183
432.30	114.2814
432.43	111.8387
432.56	108.4640
432.69	106.1815
432.82	109.0022
432.95	108.2915
433.08	109.3735
433.21	109.3449
433.35	113.5819
433.48	112.0439
433.61	113.0641
433.74	110.0011
433.87	112.5646
434.00	111.0739
434.13	110.3252
434.26	107.1269
434.39	110.6751
434.53	108.8814
434.66	110.5259
434.79	106.5868
434.92	110.8766
435.05	110.8636
435.18	105.8332
435.31	103.8140
435.44	109.8037
435.57	111.4342
435.70	108.8668
435.84	106.8200
435.97	109.3414
436.10	110.1401
436.23	105.6508
436.36	105.2163
436.49	111.1408
436.62	107.7988
436.75	105.4135
436.88	105.5156
437.01	109.5119
437.14	109.7228
437.28	106.5365
437.41	104.1049
437.54	107.5917
437.67	109.8808
437.80	102.0303
437.93	103.2796
438.06	110.4118
438.19	110.1354
438.32	105.0455
438.45	109.0318
438.58	111.2812
438.72	109.7472
438.85	107.3013
438.98	106.5524
439.11	108.8116
439.24	108.8918
439.37	104.1465
439.50	105.4492
439.63	108.1699
439.76	109.7484
439.89	109.7691
440.02	109.0873
440.15	109.3147
440.29	111.2199
440.42	108.7068
440.55	105.1876
440.68	111.2905
440.81	112.5655
440.94	106.0797
441.07	107.1766
441.20	112.6428
441.33	109.5651
441.46	106.9588
441.59	110.9610
441.72	112.0440
441.85	110.1099
441.99	107.3161
442.12	106.6636
442.25	106.8496
442.38	109.1111
442.51	109.0648
442.64	111.2010
442.77	113.0792
442.90	113.8996
443.03	111.3718
443.16	108.4463
443.29	109.9808
443.42	108.3533
443.55	107.8784
443.68	107.9518
443.82	111.6626
443.95	108.7021
444.08	109.1695
444.21	107.5447
444.34	107.2006
444.47	106.3703
444.60	108.9579
444.73	106.5791
444.86	107.1926
444.99	108.1342
445.12	109.8818
445.25	107.9134
445.38	109.5962
445.51	111.7817
445.64	115.2532
445.78	108.6438
445.91	107.4366
446.04	111.8489
446.17	108.7732
446.30	104.0718
446.43	111.0484
446.56	114.0956
446.69	108.3332
446.82	107.0015
446.95	108.7791
447.08	109.2350
447.21	107.0969
447.34	107.9222
447.47	110.3229
447.60	107.5137
447.73	106.0355
447.86	107.6224
447.99	108.0720
448.13	109.5319
448.26	110.2762
448.39	108.4676
448.52	109.3543
448.65	109.9769
448.78	107.0102
448.91	109.4727
449.04	109.4391
449.17	107.9451
449.30	108.8657
449.43	107.4313
449.56	105.8244
449.69	109.9181
449.82	108.8448
449.95	106.4693
450.08	109.6154
450.21	110.5588
450.34	106.8049
450.47	108.7128
450.60	111.4251
450.73	112.6541
450.87	111.3991
451.00	106.7557
451.13	107.9067
451.26	106.1687
451.39	104.3250
451.52	104.5546
451.65	110.2435
451.78	110.9142
451.91	108.6824
452.04	106.6654
452.17	109.2936
452.30	109.8089
452.43	105.7346
452.56	110.3750
452.69	109.7662
452.82	107.4342
452.95	108.4660
453.08	107.6664
453.21	106.8000
453.34	109.2419
453.47	106.2521
453.60	104.1432
453.73	106.9140
453.86	105.3102
453.99	105.9696
454.12	108.3672
454.25	109.8864
454.38	108.9665
454.52	109.4385
454.65	109.7544
454.78	109.2702
454.91	108.1169
455.04	109.5403
455.17	106.5539
455.30	106.5413
455.43	109.1631
455.56	107.9196
455.69	105.7265
455.82	109.5377
455.95	108.9034
456.08	107.6311
456.21	109.0355
456.34	109.2909
456.47	108.5671
456.60	108.5546
456.73	106.6078
456.86	106.6787
456.99	108.1406
457.12	106.3091
457.25	105.4295
457.38	106.4463
457.51	106.3296
457.64	105.7144
457.77	107.1232
457.90	107.5730
458.03	107.7739
458.16	106.9629
458.29	107.7039
458.42	108.4567
458.55	109.3927
458.68	107.6335
458.81	104.4679
458.94	106.0688
459.07	107.3646
459.20	106.2428
459.33	105.2622
459.46	108.4603
459.59	108.5793
459.72	105.3352
459.85	104.8349
459.98	108.0519
460.11	109.8019
460.24	105.9306
460.37	106.6984
460.50	108.2726
460.63	107.9361
460.76	104.8434
460.89	105.7725
461.02	107.4093
461.15	107.1288
461.28	104.4382
461.41	106.9620
461.54	108.0917
461.67	106.2626
461.80	106.1964
461.93	107.2257
462.06	106.7847
462.19	107.7683
462.32	106.8879
462.45	106.9704
462.58	107.8411
462.71	108.3467
462.84	106.3160
462.97	106.7313
463.10	105.3797
463.23	105.3060
463.36	105.6819
463.49	105.7110
463.62	106.4420
463.75	107.6277
463.88	109.8901
464.01	106.0693
464.14	107.4975
464.27	108.9438
464.40	107.7987
464.53	105.8039
464.66	107.2959
464.79	107.2301
464.92	105.8265
465.05	106.0286
465.18	105.9929
465.31	107.3113
465.44	107.0789
465.57	104.4371
465.70	105.3130
465.83	107.2145
465.96	105.7996
466.09	104.8257
466.22	108.3002
466.35	108.5664
466.48	107.1083
466.61	107.3216
466.74	106.9577
466.87	105.9395
467.00	104.4480
467.13	105.3378
467.26	106.9690
467.39	107.6979
467.52	106.0753
467.65	107.0985
467.78	105.8744
467.91	104.5546
468.04	104.6743
468.17	107.3056
468.30	107.5574
468.43	107.2594
468.56	106.7639
468.69	107.9436
468.82	107.3835
468.95	107.3510
469.08	108.4292
469.21	107.6804
469.34	105.4831
469.47	106.4456
469.60	106.2938
469.73	105.1267
469.86	108.2423
469.99	109.5493
470.11	107.3803
470.24	106.9314
470.37	108.0731
470.50	107.2189
470.63	106.1791
470.76	105.7746
470.89	107.4981
471.02	107.8811
471.15	105.4666
471.28	104.7825
471.41	106.6779
471.54	106.6185
471.67	104.3903
471.80	105.4950
471.93	107.4017
472.06	108.4032
472.19	105.5918
472.32	106.2372
472.45	107.1853
472.58	106.6760
472.71	105.6274
472.84	107.8154
472.97	107.4857
473.10	108.0394
473.23	106.8431
473.36	106.1831
473.49	105.5570
473.62	105.8902
473.74	105.3871
473.87	107.2322
474.00	107.2866
474.13	106.7240
474.26	107.3288
474.39	107.1014
474.52	105.6574
474.65	106.9116
474.78	107.8771
474.91	106.0723
475.04	105.7904
475.17	106.7400
475.30	105.4092
475.43	105.2094
475.56	106.9603
475.69	108.0772
475.82	107.1366
475.95	107.9953
476.08	108.1247
476.21	107.8736
476.34	106.0550
476.46	107.0480
476.59	106.7019
476.72	106.8115
476.85	105.6642
476.98	105.8458
477.11	106.3012
477.24	105.8393
477.37	104.9747
477.50	106.3416
477.63	107.0871
477.76	106.6018
477.89	106.3060
478.02	106.2387
478.15	106.1232
478.28	106.5598
478.41	105.2776
478.54	106.0219
478.66	106.5090
478.79	106.4918
478.92	105.8000
479.05	106.8009
479.18	106.0803
479.31	106.2765
479.44	106.0760
479.57	105.9947
479.70	106.6659
479.83	107.4669
479.96	105.6526
480.09	105.1590
480.22	105.5195
480.35	104.9365
480.48	104.8221
480.60	105.6819
480.73	106.4104
480.86	106.5502
480.99	106.2764
481.12	105.2316
481.25	106.5109
481.38	106.5473
481.51	105.7262
481.64	105.8883
481.77	107.0209
481.90	106.6042
482.03	105.6877
482.16	106.3433
482.29	106.4303
482.41	106.6126
482.54	106.5980
482.67	107.0699
482.80	107.4581
482.93	106.8405
483.06	106.1840
483.19	106.3415
483.32	106.7004
483.45	105.9472
483.58	105.8484
483.71	105.7119
483.84	105.3198
483.97	105.0556
484.09	105.1677
484.22	105.8759
484.35	106.0308
484.48	105.8509
484.61	105.9109
484.74	106.1899
484.87	105.8970
485.00	106.1966
485.13	106.1758
485.26	106.6203
485.39	105.6868
485.52	105.3195
485.64	104.7473
485.77	105.3622
485.90	104.9909
486.03	106.0324
486.16	106.2255
486.29	106.3882
486.42	106.1782
486.55	105.6706
486.68	105.0983
486.81	105.6244
486.94	105.5097
487.06	104.9513
487.19	105.4335
487.32	105.9359
487.45	105.5818
487.58	106.2588
487.71	106.5015
487.84	106.1237
487.97	105.7560
488.10	106.1161
488.23	105.2509
488.35	105.5264
488.48	105.9319
488.61	106.1255
488.74	105.8345
488.87	105.5390
489.00	105.5121
489.13	105.7455
489.26	105.6657
489.39	105.5449
489.52	106.2554
489.64	105.9671
489.77	105.5877
489.90	105.2738
490.03	105.4528
490.16	105.6584
490.29	105.3067
490.42	105.6600
490.55	105.7589
490.68	106.1721
490.81	105.2538
490.93	105.6090
491.06	105.4669
491.19	105.2853
491.32	105.0612
491.45	105.6157
491.58	105.8173
491.71	106.0618
491.84	105.7759
491.97	105.5685
492.09	106.0611
492.22	105.7832
492.35	105.5758
492.48	106.3574
492.61	106.0056
492.74	105.5779
492.87	105.8869
493.00	105.4090
493.12	105.0956
493.25	105.6128
493.38	106.0542
493.51	105.6268
493.64	105.8106
493.77	105.8725
493.90	105.2400
494.03	104.6934
494.16	105.1650
494.28	105.6696
494.41	105.0674
494.54	105.2807
494.67	105.9874
494.80	105.7127
494.93	105.4018
495.06	106.1765
495.19	106.6671
495.31	106.4150
495.44	106.2869
495.57	106.4334
495.70	106.6802
495.83	106.6107
495.96	105.8363
496.09	105.6373
496.22	106.1592
496.34	105.9010
496.47	105.2746
496.60	105.4235
496.73	106.0461
496.86	105.1026
496.99	105.1334
497.12	105.4445
497.24	105.5677
497.37	105.4496
497.50	105.8859
497.63	105.1976
497.76	104.8048
497.89	105.6544
498.02	105.6302
498.15	105.3044
498.27	105.5391
498.40	105.9939
498.53	105.3456
498.66	105.6794
498.79	105.7170
498.92	105.8045
499.05	105.8973
499.17	105.2911
499.30	104.8632
499.43	105.3575
499.56	105.2574
499.69	105.0887
499.82	105.8104
499.95	106.0655
500.07	105.8252
500.20	105.2931
500.33	105.4745
500.46	105.8146
500.59	105.6210
500.72	105.2780
500.85	105.7984
500.97	106.2196
501.10	105.9685
501.23	105.3275
501.36	105.3253
501.49	105.7067
501.62	104.7293
501.75	104.9019
501.87	105.3798
502.00	105.3730
502.13	105.3421
502.26	105.6234
502.39	105.4609
502.52	105.3202
502.64	104.9431
502.77	104.7131
502.90	105.1676
503.03	105.0652
503.16	104.7749
503.29	105.2514
503.42	105.5794
503.54	105.5180
503.67	104.9674
503.80	105.9671
503.93	106.1868
504.06	105.5132
504.19	105.3245
504.31	105.5582
504.44	104.9493
504.57	105.1099
504.70	105.3185
504.83	105.2601
504.96	105.3846
505.08	104.7900
505.21	104.3123
505.34	104.5729
505.47	104.6427
505.60	104.8008
505.73	104.8059
505.85	105.1970
505.98	105.4983
506.11	105.4752
506.24	105.2988
506.37	105.5786
506.50	105.5364
506.62	105.2565
506.75	104.8881
506.88	105.2377
507.01	105.4399
507.14	105.2831
507.27	105.1786
507.39	105.6057
507.52	104.9271
507.65	105.2352
507.78	104.9712
507.91	104.8439
508.04	104.6320
508.16	104.9786
508.29	105.2461
508.42	105.6654
508.55	105.1643
508.68	105.3008
508.81	105.4291
508.93	104.8756
509.06	104.5391
509.19	105.2948
509.32	105.0078
509.45	105.0188
509.57	105.0676
509.70	105.2352
509.83	104.9769
509.96	105.1606
510.09	105.0317
510.22	105.2262
510.34	104.8136
510.47	104.9794
510.60	104.9453
510.73	104.8975
510.86	104.8305
510.98	104.9240
511.11	104.7089
511.24	104.8951
511.37	104.9816
511.50	104.8815
511.63	105.1434
511.75	105.1392
511.88	104.9601
512.01	104.8624
512.14	104.9242
512.27	104.9578
512.39	104.9775
512.52	105.0499
512.65	105.1079
512.78	104.8192
512.91	104.4823
513.03	104.2503
513.16	104.2045
513.29	103.9864
513.42	103.8677
513.55	104.3615
513.67	104.8010
513.80	104.5421
513.93	104.4095
514.06	104.7229
514.19	104.2270
514.31	104.2288
514.44	104.2413
514.57	104.0461
514.70	104.2311
514.83	104.5915
514.95	104.3779
515.08	104.5143
515.21	104.9219
515.34	104.9553
515.47	104.7866
515.59	104.7699
515.72	104.3482
515.85	104.4547
515.98	104.0491
516.11	103.7702
516.23	103.9040
516.36	104.4762
516.49	104.1085
516.62	103.9329
516.75	104.6487
516.87	104.5551
517.00	103.8402
517.13	104.0216
517.26	104.7670
517.39	104.1514
517.51	103.5654
517.64	104.2814
517.77	104.1859
517.90	103.8089
518.02	104.2093
518.15	104.5168
518.28	104.1554
518.41	104.0524
518.54	103.9454
518.66	103.8465
518.79	103.9772
518.92	103.9196
519.05	103.7208
519.18	103.7044
519.30	103.4869
519.43	103.4819
519.56	103.2852
519.69	103.6809
519.81	103.8041
519.94	103.6323
520.07	103.4952
520.20	103.6661
520.33	103.6561
520.45	103.5121
520.58	103.4606
520.71	103.5111
520.84	103.7474
520.96	103.8015
521.09	103.5489
521.22	103.5319
521.35	103.7911
521.48	103.7842
521.60	103.4949
521.73	103.1044
521.86	103.3902
521.99	103.4007
522.11	103.0829
522.24	103.3359
522.37	103.4742
522.50	103.7737
522.62	103.5486
522.75	103.7988
522.88	103.6207
523.01	103.8833
523.14	103.2539
523.26	103.5794
523.39	103.1881
523.52	103.2373
523.65	103.3781
523.77	103.4446
523.90	102.9709
524.03	103.2156
524.16	103.2628
524.28	103.1994
524.41	103.6892
524.54	103.9335
524.67	103.6855
524.79	103.3279
524.92	103.5832
525.05	103.0802
525.18	103.2459
525.31	102.8586
525.43	103.3522
525.56	103.6308
525.69	103.6236
525.82	103.2091
525.94	103.9696
526.07	103.9522
526.20	103.2763
526.33	103.3090
526.45	103.4376
526.58	103.3871
526.71	102.9593
526.84	103.2598
526.96	103.2267
527.09	103.3342
527.22	103.5603
527.35	103.5060
527.47	103.6777
527.60	103.7031
527.73	103.4713
527.86	103.2534
527.98	103.7223
528.11	103.2550
528.24	103.5962
528.37	103.6707
528.49	103.2642
528.62	103.4891
528.75	103.7732
528.88	103.4889
529.00	103.7327
529.13	104.1704
529.26	103.4400
529.39	103.1803
529.51	103.5375
529.64	103.4624
529.77	103.1456
529.90	103.4366
530.02	103.8204
530.15	103.5884
530.28	103.4596
530.40	103.5289
530.53	103.7193
530.66	103.2401
530.79	103.2234
530.91	103.1702
531.04	103.3225
531.17	103.1231
531.30	103.4240
531.42	102.9461
531.55	103.2736
531.68	103.4630
531.81	103.4421
531.93	103.6136
532.06	103.9271
532.19	103.5115
532.31	103.1328
532.44	103.3750
532.57	103.1328
532.70	103.0224
532.82	102.8791
532.95	102.7703
533.08	102.6568
533.21	102.8182
533.33	103.0055
533.46	102.8082
533.59	103.2351
533.71	103.4082
533.84	103.4001
533.97	103.3808
534.10	103.7561
534.22	103.6528
534.35	103.1565
534.48	103.0931
534.61	103.2205
534.73	103.1411
534.86	102.8704
534.99	103.2003
535.11	103.2702
535.24	103.3390
535.37	103.6656
535.50	103.7073
535.62	103.4777
535.75	103.4287
535.88	103.1818
536.00	102.8340
536.13	102.9232
536.26	103.2007
536.39	102.8791
536.51	103.0238
536.64	103.3188
536.77	103.2803
536.89	103.0252
537.02	103.3039
537.15	103.1339
537.28	103.1344
537.40	102.9428
537.53	102.9248
537.66	102.9699
537.78	103.2104
537.91	103.1537
538.04	103.7580
538.17	103.6673
538.29	103.2637
538.42	103.0878
538.55	103.2344
538.67	102.9121
538.80	103.4490
538.93	103.5891
539.05	103.5382
539.18	103.2871
539.31	103.5364
539.44	103.2002
539.56	103.4613
539.69	103.8751
539.82	104.1388
539.94	103.5684
540.07	103.6154
540.20	103.5537
540.32	103.1276
540.45	102.6619
540.58	103.2745
540.71	103.5481
540.83	103.6851
540.96	103.5536
541.09	103.6297
541.21	103.6307
541.34	103.5200
541.47	103.3009
541.59	103.2015
